MIN=0	-1	-1
MAX=452.548339959391	1	1
SCALE=452.548339959391	0.5	0.5
DEC=2	3	3
DEF="Zeit" t / s	"Spannung" U_A1 / V	"Spannung" U_B1 / V
0	0.676	0.0705
0.05	0.7175	0.1095
0.1	0.751	0.1385
0.15	0.7835	0.165
0.2	0.805	0.181
0.25	0.8225	0.1945
0.3	0.8325	0.198
0.35	0.8375	0.197
0.4	0.8325	0.1845
0.45	0.823	0.1705
0.5	0.803	0.145
0.55	0.7785	0.119
0.6	0.7455	0.0855
0.65	0.712	0.0485
0.7	0.671	0.004
0.75	0.632	-0.04
0.8	0.588	-0.088
0.85	0.543	-0.132
0.9	0.498	-0.175
0.95	0.457	-0.2145
1	0.4175	-0.251
1.05	0.384	-0.279
1.1	0.353	-0.3065
1.15	0.33	-0.3265
1.2	0.3115	-0.3385
1.25	0.3	-0.344
1.3	0.293	-0.343
1.35	0.2975	-0.332
1.4	0.3015	-0.3195
1.45	0.32	-0.2955
1.5	0.3415	-0.2715
1.55	0.3755	-0.237
1.6	0.406	-0.1995
1.65	0.4485	-0.1565
1.7	0.487	-0.1145
1.75	0.5335	-0.071
1.8	0.5775	-0.029
1.85	0.6195	0.0155
1.9	0.659	0.055
1.95	0.701	0.095
2	0.736	0.124
2.05	0.771	0.152
2.1	0.797	0.1755
2.15	0.816	0.189
2.2	0.828	0.195
2.25	0.8365	0.197
2.3	0.833	0.1865
2.35	0.826	0.176
2.4	0.81	0.153
2.45	0.789	0.1275
2.5	0.76	0.094
2.55	0.7285	0.059
2.6	0.689	0.0135
2.65	0.65	-0.0285
2.7	0.605	-0.074
2.75	0.564	-0.1155
2.8	0.5175	-0.16
2.85	0.4755	-0.197
2.9	0.4335	-0.238
2.95	0.3995	-0.269
3	0.365	-0.3
3.05	0.3365	-0.3195
3.1	0.316	-0.337
3.15	0.305	-0.343
3.2	0.295	-0.346
3.25	0.2935	-0.34
3.3	0.2995	-0.3285
3.35	0.3175	-0.309
3.4	0.337	-0.2845
3.45	0.366	-0.249
3.5	0.3945	-0.216
3.55	0.4315	-0.1735
3.6	0.4715	-0.13
3.65	0.5145	-0.082
3.7	0.556	-0.0405
3.75	0.6035	0.0035
3.8	0.6435	0.0445
3.85	0.687	0.0835
3.9	0.723	0.1145
3.95	0.7565	0.146
4	0.7855	0.1655
4.05	0.8085	0.1845
4.1	0.8255	0.194
4.15	0.8365	0.197
4.2	0.8355	0.1905
4.25	0.8325	0.181
4.3	0.819	0.1615
4.35	0.7985	0.1375
4.4	0.7725	0.1065
4.45	0.7415	0.075
4.5	0.7005	0.033
4.55	0.661	-0.0075
4.6	0.6185	-0.0555
4.65	0.579	-0.097
4.7	0.533	-0.1435
4.75	0.4885	-0.181
4.8	0.445	-0.223
4.85	0.4105	-0.256
4.9	0.3765	-0.287
4.95	0.346	-0.3105
5	0.322	-0.33
5.05	0.309	-0.3405
5.1	0.298	-0.3485
5.15	0.2955	-0.3395
5.2	0.295	-0.3295
5.25	0.3085	-0.3105
5.3	0.326	-0.2885
5.35	0.353	-0.256
5.4	0.383	-0.2275
5.45	0.4195	-0.1855
5.5	0.4575	-0.1485
5.55	0.5	-0.1055
5.6	0.5435	-0.061
5.65	0.5865	-0.013
5.7	0.6285	0.0265
5.75	0.673	0.067
5.8	0.7125	0.104
5.85	0.7455	0.1355
5.9	0.773	0.1605
5.95	0.7995	0.1795
6	0.8175	0.191
6.05	0.8285	0.1985
6.1	0.8335	0.1955
6.15	0.831	0.186
6.2	0.818	0.1705
6.25	0.8045	0.1475
6.3	0.779	0.118
6.35	0.75	0.084
6.4	0.714	0.046
6.45	0.6785	0.0065
6.5	0.6385	-0.041
6.55	0.5965	-0.0845
6.6	0.552	-0.1325
6.65	0.507	-0.1705
6.7	0.464	-0.21
6.75	0.423	-0.247
6.8	0.385	-0.2805
6.85	0.354	-0.306
6.9	0.328	-0.3255
6.95	0.3105	-0.336
7	0.2995	-0.345
7.05	0.2945	-0.3415
7.1	0.2965	-0.335
7.15	0.3045	-0.32
7.2	0.321	-0.3
7.25	0.344	-0.2705
7.3	0.369	-0.2385
7.35	0.403	-0.2015
7.4	0.438	-0.1605
7.45	0.4795	-0.117
7.5	0.524	-0.0725
7.55	0.57	-0.0295
7.6	0.6135	0.012
7.65	0.655	0.0565
7.7	0.697	0.094
7.75	0.7345	0.1265
7.8	0.768	0.151
7.85	0.795	0.1735
7.9	0.8125	0.186
7.95	0.8275	0.1955
8	0.834	0.194
8.05	0.834	0.188
8.1	0.8255	0.173
8.15	0.8105	0.1545
8.2	0.791	0.1285
8.25	0.7635	0.0955
8.3	0.73	0.06
8.35	0.693	0.019
8.4	0.653	-0.0255
8.45	0.61	-0.0695
8.5	0.5665	-0.112
8.55	0.5235	-0.156
8.6	0.4785	-0.1955
8.65	0.4375	-0.2315
8.7	0.401	-0.266
8.75	0.3685	-0.2935
8.8	0.341	-0.316
8.85	0.3195	-0.3335
8.9	0.305	-0.3435
8.95	0.293	-0.3465
9	0.292	-0.3385
9.05	0.299	-0.3255
9.1	0.3145	-0.305
9.15	0.3365	-0.2815
9.2	0.362	-0.2495
9.25	0.389	-0.2135
9.3	0.425	-0.1745
9.35	0.465	-0.1315
9.4	0.5085	-0.089
9.45	0.553	-0.0445
9.5	0.597	-0.0035
9.55	0.638	0.037
9.6	0.6815	0.0755
9.65	0.72	0.114
9.7	0.7555	0.144
9.75	0.788	0.167
9.8	0.8115	0.1825
9.85	0.8255	0.1925
9.9	0.835	0.1965
9.95	0.838	0.1915
10	0.834	0.179
10.05	0.821	0.161
10.1	0.8035	0.1365
10.15	0.778	0.108
10.2	0.747	0.0755
10.25	0.711	0.0345
10.3	0.6705	-0.006
10.35	0.6255	-0.051
10.4	0.5835	-0.0925
10.45	0.537	-0.1385
10.5	0.494	-0.1805
10.55	0.4525	-0.2225
10.6	0.4145	-0.253
10.65	0.378	-0.286
10.7	0.3475	-0.31
10.75	0.3215	-0.33
10.8	0.3075	-0.338
10.85	0.2955	-0.3435
10.9	0.293	-0.338
10.95	0.297	-0.3315
11	0.309	-0.315
11.05	0.327	-0.2925
11.1	0.3525	-0.2595
11.15	0.383	-0.227
11.2	0.417	-0.19
11.25	0.453	-0.148
11.3	0.496	-0.1035
11.35	0.5345	-0.0605
11.4	0.5815	-0.017
11.45	0.6225	0.0265
11.5	0.6685	0.0645
11.55	0.7085	0.101
11.6	0.7435	0.133
11.65	0.773	0.159
11.7	0.8005	0.1825
11.75	0.8155	0.1915
11.8	0.8325	0.195
11.85	0.837	0.1915
11.9	0.834	0.187
11.95	0.8215	0.1715
12	0.8055	0.153
12.05	0.7825	0.1175
12.1	0.755	0.085
12.15	0.7205	0.046
12.2	0.6855	0.006
12.25	0.646	-0.037
12.3	0.605	-0.078
12.35	0.5625	-0.1255
12.4	0.5175	-0.166
12.45	0.4725	-0.207
12.5	0.4325	-0.2415
12.55	0.394	-0.2735
12.6	0.361	-0.299
12.65	0.334	-0.3215
12.7	0.3145	-0.334
12.75	0.3015	-0.342
12.8	0.297	-0.3395
12.85	0.2955	-0.333
12.9	0.304	-0.318
12.95	0.3175	-0.302
13	0.3405	-0.2745
13.05	0.364	-0.2415
13.1	0.398	-0.2045
13.15	0.4345	-0.165
13.2	0.4785	-0.121
13.25	0.5205	-0.0785
13.3	0.5635	-0.034
13.35	0.608	0.0075
13.4	0.652	0.049
13.45	0.6915	0.085
13.5	0.731	0.12
13.55	0.763	0.1485
13.6	0.7925	0.172
13.65	0.812	0.1845
13.7	0.8265	0.193
13.75	0.834	0.191
13.8	0.834	0.1895
13.85	0.8275	0.176
13.9	0.8135	0.158
13.95	0.792	0.128
14	0.7665	0.096
14.05	0.7345	0.061
14.1	0.701	0.0245
14.15	0.658	-0.019
14.2	0.6175	-0.0645
14.25	0.57	-0.1075
14.3	0.5285	-0.1485
14.35	0.4835	-0.1915
14.4	0.4405	-0.2275
14.45	0.402	-0.2635
14.5	0.369	-0.291
14.55	0.3405	-0.3165
14.6	0.323	-0.329
14.65	0.3085	-0.34
14.7	0.298	-0.3415
14.75	0.2955	-0.3395
14.8	0.303	-0.326
14.85	0.3145	-0.31
14.9	0.332	-0.281
14.95	0.3535	-0.254
15	0.3865	-0.218
15.05	0.42	-0.182
15.1	0.4585	-0.14
15.15	0.4965	-0.0935
15.2	0.543	-0.0465
15.25	0.587	-0.007
15.3	0.634	0.039
15.35	0.674	0.077
15.4	0.7135	0.109
15.45	0.7475	0.1365
15.5	0.7785	0.1645
15.55	0.8045	0.1815
15.6	0.8235	0.1955
15.65	0.8315	0.197
15.7	0.837	0.1935
15.75	0.83	0.1775
15.8	0.819	0.162
15.85	0.8005	0.135
15.9	0.7775	0.11
15.95	0.7475	0.0755
16	0.714	0.039
16.05	0.674	-0.005
16.1	0.6355	-0.0465
16.15	0.59	-0.0925
16.2	0.5455	-0.1315
16.25	0.4995	-0.176
16.3	0.4575	-0.214
16.35	0.42	-0.252
16.4	0.385	-0.2815
16.45	0.355	-0.306
16.5	0.331	-0.322
16.55	0.3105	-0.3355
16.6	0.2995	-0.342
16.65	0.293	-0.34
16.7	0.2975	-0.329
16.75	0.3055	-0.314
16.8	0.3225	-0.2885
16.85	0.3455	-0.2605
16.9	0.3745	-0.2305
16.95	0.4085	-0.195
17	0.448	-0.151
17.05	0.4875	-0.1095
17.1	0.531	-0.065
17.15	0.5755	-0.02
17.2	0.621	0.027
17.25	0.6595	0.061
17.3	0.6995	0.096
17.35	0.7335	0.1265
17.4	0.766	0.1565
17.45	0.7915	0.1715
17.5	0.8155	0.187
17.55	0.8265	0.1895
17.6	0.8335	0.194
17.65	0.831	0.183
17.7	0.8255	0.1685
17.75	0.806	0.1465
17.8	0.785	0.1215
17.85	0.756	0.0885
17.9	0.7245	0.0535
17.95	0.686	0.0105
18	0.646	-0.033
18.05	0.5995	-0.079
18.1	0.5585	-0.117
18.15	0.514	-0.1625
18.2	0.474	-0.199
18.25	0.433	-0.2375
18.3	0.396	-0.2665
18.35	0.361	-0.2975
18.4	0.337	-0.3165
18.45	0.313	-0.3345
18.5	0.2985	-0.34
18.55	0.2945	-0.343
18.6	0.295	-0.3345
18.65	0.3025	-0.3205
18.7	0.318	-0.298
18.75	0.339	-0.2725
18.8	0.3665	-0.24
18.85	0.398	-0.206
18.9	0.4345	-0.164
18.95	0.4715	-0.1245
19	0.515	-0.0795
19.05	0.558	-0.037
19.1	0.6035	0.006
19.15	0.6445	0.0445
19.2	0.6855	0.085
19.25	0.7225	0.1175
19.3	0.757	0.147
19.35	0.784	0.1675
19.4	0.807	0.1835
19.45	0.8225	0.189
19.5	0.833	0.1935
19.55	0.8305	0.185
19.6	0.8275	0.175
19.65	0.8145	0.1525
19.7	0.7965	0.1295
19.75	0.7695	0.0985
19.8	0.7395	0.061
19.85	0.701	0.022
19.9	0.664	-0.0165
19.95	0.619	-0.06
20	0.577	-0.1035
20.05	0.531	-0.146
20.1	0.49	-0.1835
20.15	0.4495	-0.2235
20.2	0.413	-0.2545
20.25	0.3755	-0.286
20.3	0.347	-0.309
20.35	0.3225	-0.325
20.4	0.309	-0.3375
20.45	0.296	-0.345
20.5	0.2945	-0.3365
20.55	0.296	-0.3265
20.6	0.309	-0.3085
20.65	0.326	-0.2865
20.7	0.352	-0.254
20.75	0.3835	-0.2215
20.8	0.421	-0.1785
20.85	0.4585	-0.1385
20.9	0.501	-0.094
20.95	0.5425	-0.0525
21	0.5875	-0.0055
21.05	0.6305	0.0315
21.1	0.6715	0.071
21.15	0.708	0.103
21.2	0.747	0.1365
21.25	0.777	0.1585
21.3	0.8055	0.1745
21.35	0.822	0.185
21.4	0.8325	0.192
21.45	0.834	0.1905
21.5	0.8325	0.1815
21.55	0.8205	0.1615
21.6	0.8065	0.1365
21.65	0.78	0.1075
21.7	0.7505	0.0785
21.75	0.714	0.039
21.8	0.681	0
21.85	0.6395	-0.0475
21.9	0.596	-0.0895
21.95	0.5505	-0.132
22	0.507	-0.1725
22.05	0.4645	-0.214
22.1	0.4255	-0.248
22.15	0.385	-0.279
22.2	0.3545	-0.305
22.25	0.3285	-0.323
22.3	0.311	-0.3355
22.35	0.297	-0.338
22.4	0.2925	-0.3385
22.45	0.295	-0.3325
22.5	0.306	-0.3135
22.55	0.32	-0.2905
22.6	0.3435	-0.262
22.65	0.368	-0.231
22.7	0.4045	-0.192
22.75	0.439	-0.154
22.8	0.482	-0.1095
22.85	0.5225	-0.0715
22.9	0.5675	-0.0265
22.95	0.6085	0.0125
23	0.6555	0.0535
23.05	0.6965	0.088
23.1	0.735	0.1205
23.15	0.768	0.1475
23.2	0.7975	0.171
23.25	0.8165	0.1825
23.3	0.8345	0.1925
23.35	0.8385	0.188
23.4	0.838	0.1805
23.45	0.827	0.1665
23.5	0.8145	0.1485
23.55	0.791	0.121
23.6	0.7655	0.089
23.65	0.731	0.049
23.7	0.693	0.012
23.75	0.6495	-0.032
23.8	0.611	-0.0745
23.85	0.5665	-0.1185
23.9	0.523	-0.161
23.95	0.4765	-0.2025
24	0.439	-0.2355
24.05	0.403	-0.2705
24.1	0.369	-0.294
24.15	0.341	-0.317
24.2	0.32	-0.3275
24.25	0.3035	-0.337
24.3	0.2975	-0.338
24.35	0.295	-0.331
24.4	0.303	-0.3185
24.45	0.3175	-0.302
24.5	0.3415	-0.276
24.55	0.366	-0.2425
24.6	0.398	-0.207
24.65	0.4295	-0.1685
24.7	0.4695	-0.126
24.75	0.509	-0.0855
24.8	0.553	-0.0415
24.85	0.5975	0
24.9	0.641	0.0415
24.95	0.6795	0.0755
25	0.718	0.1125
25.05	0.7505	0.14
25.1	0.783	0.1625
25.15	0.805	0.181
25.2	0.821	0.1905
25.25	0.8295	0.19
25.3	0.834	0.1865
25.35	0.8305	0.1765
25.4	0.8165	0.1585
25.45	0.795	0.1295
25.5	0.7715	0.1015
25.55	0.7385	0.065
25.6	0.708	0.0285
25.65	0.667	-0.0145
25.7	0.6235	-0.059
25.75	0.5805	-0.1025
25.8	0.539	-0.143
25.85	0.496	-0.1865
25.9	0.453	-0.2215
25.95	0.4135	-0.257
26	0.381	-0.286
26.05	0.352	-0.308
26.1	0.328	-0.326
26.15	0.309	-0.336
26.2	0.3005	-0.3405
26.25	0.297	-0.34
26.3	0.3025	-0.328
26.35	0.3115	-0.31
26.4	0.3295	-0.284
26.45	0.3545	-0.2575
26.5	0.3825	-0.2205
26.55	0.4145	-0.181
26.6	0.452	-0.143
26.65	0.492	-0.102
26.7	0.536	-0.0555
26.75	0.579	-0.0145
26.8	0.625	0.028
26.85	0.6655	0.0655
26.9	0.7065	0.101
26.95	0.7435	0.13
27	0.7755	0.1565
27.05	0.8	0.1725
27.1	0.8185	0.184
27.15	0.8315	0.1885
27.2	0.8355	0.19
27.25	0.8325	0.181
27.3	0.823	0.164
27.35	0.807	0.141
27.4	0.787	0.1115
27.45	0.757	0.08
27.5	0.7245	0.041
27.55	0.685	0.001
27.6	0.645	-0.0415
27.65	0.6015	-0.0855
27.7	0.5585	-0.128
27.75	0.512	-0.1695
27.8	0.47	-0.208
27.85	0.4285	-0.2455
27.9	0.3955	-0.2765
27.95	0.3615	-0.3025
28	0.3365	-0.3225
28.05	0.3175	-0.3355
28.1	0.3035	-0.3405
28.15	0.295	-0.341
28.2	0.2945	-0.331
28.25	0.3025	-0.315
28.3	0.318	-0.293
28.35	0.3405	-0.2655
28.4	0.367	-0.2335
28.45	0.4005	-0.1975
28.5	0.437	-0.1595
28.55	0.4785	-0.116
28.6	0.5195	-0.071
28.65	0.5625	-0.0295
28.7	0.606	0.013
28.75	0.648	0.052
28.8	0.693	0.0865
28.85	0.7295	0.119
28.9	0.761	0.1505
28.95	0.7885	0.1655
29	0.8085	0.181
29.05	0.8255	0.1885
29.1	0.8335	0.1885
29.15	0.8335	0.1795
29.2	0.8285	0.1675
29.25	0.817	0.1475
29.3	0.7955	0.123
29.35	0.768	0.0915
29.4	0.7345	0.053
29.45	0.6975	0.0125
29.5	0.657	-0.026
29.55	0.6165	-0.0705
29.6	0.573	-0.113
29.65	0.5275	-0.155
29.7	0.486	-0.195
29.75	0.4435	-0.229
29.8	0.407	-0.2615
29.85	0.373	-0.2885
29.9	0.3445	-0.3115
29.95	0.3205	-0.3255
30	0.3055	-0.3345
30.05	0.2975	-0.337
30.1	0.294	-0.329
30.15	0.2975	-0.3195
30.2	0.3105	-0.299
30.25	0.33	-0.2745
30.3	0.3535	-0.242
30.35	0.382	-0.207
30.4	0.4195	-0.1705
30.45	0.46	-0.129
30.5	0.5045	-0.09
30.55	0.548	-0.0455
30.6	0.5925	-0.0075
30.65	0.635	0.0355
30.7	0.6765	0.074
30.75	0.716	0.1075
30.8	0.7505	0.138
30.85	0.78	0.156
30.9	0.802	0.1745
30.95	0.8195	0.1865
31	0.8305	0.191
31.05	0.834	0.1865
31.1	0.828	0.175
31.15	0.8175	0.1515
31.2	0.799	0.1285
31.25	0.7745	0.1005
31.3	0.742	0.066
31.35	0.7075	0.027
31.4	0.6675	-0.015
31.45	0.629	-0.0535
31.5	0.585	-0.0955
31.55	0.542	-0.1405
31.6	0.497	-0.18
31.65	0.456	-0.2165
31.7	0.419	-0.2515
31.75	0.386	-0.2795
31.8	0.3555	-0.301
31.85	0.3305	-0.3205
31.9	0.309	-0.3325
31.95	0.2985	-0.336
32	0.2945	-0.333
32.05	0.2995	-0.323
32.1	0.306	-0.307
32.15	0.3225	-0.284
32.2	0.3435	-0.2545
32.25	0.3745	-0.2205
32.3	0.411	-0.185
32.35	0.4505	-0.146
32.4	0.4895	-0.1055
32.45	0.5325	-0.058
32.5	0.5735	-0.017
32.55	0.618	0.0255
32.6	0.66	0.0615
32.65	0.7	0.095
32.7	0.7355	0.1255
32.75	0.7695	0.1515
32.8	0.793	0.1685
32.85	0.814	0.1805
32.9	0.8265	0.184
32.95	0.833	0.188
33	0.83	0.1775
33.05	0.823	0.1595
33.1	0.807	0.137
33.15	0.788	0.113
33.2	0.757	0.0815
33.25	0.728	0.0465
33.3	0.689	0.0025
33.35	0.6495	-0.0375
33.4	0.605	-0.081
33.45	0.5625	-0.124
33.5	0.515	-0.1685
33.55	0.4735	-0.2035
33.6	0.4325	-0.241
33.65	0.4005	-0.2715
33.7	0.3685	-0.295
33.75	0.3415	-0.314
33.8	0.319	-0.328
33.85	0.306	-0.3365
33.9	0.296	-0.3375
33.95	0.297	-0.327
34	0.3025	-0.3155
34.05	0.3205	-0.291
34.1	0.338	-0.265
34.15	0.3655	-0.231
34.2	0.3965	-0.1975
34.25	0.4345	-0.16
34.3	0.4735	-0.1205
34.35	0.5165	-0.078
34.4	0.5585	-0.036
34.45	0.599	0.007
34.5	0.643	0.0445
34.55	0.6855	0.084
34.6	0.72	0.115
34.65	0.7555	0.145
34.7	0.782	0.164
34.75	0.8035	0.1775
34.8	0.8185	0.1845
34.85	0.8285	0.1875
34.9	0.828	0.1775
34.95	0.825	0.1655
35	0.8135	0.1465
35.05	0.7945	0.122
35.1	0.769	0.0885
35.15	0.7385	0.056
35.2	0.7015	0.0155
35.25	0.6645	-0.024
35.3	0.622	-0.0685
35.35	0.5775	-0.1065
35.4	0.534	-0.152
35.45	0.491	-0.191
35.5	0.448	-0.2275
35.55	0.408	-0.2585
35.6	0.3725	-0.288
35.65	0.3465	-0.309
35.7	0.3245	-0.3245
35.75	0.309	-0.332
35.8	0.299	-0.335
35.85	0.2965	-0.332
35.9	0.3015	-0.319
35.95	0.3145	-0.2985
36	0.331	-0.2765
36.05	0.3565	-0.244
36.1	0.3845	-0.2125
36.15	0.4185	-0.1765
36.2	0.4555	-0.136
36.25	0.4995	-0.091
36.3	0.5385	-0.049
36.35	0.5865	-0.0065
36.4	0.63	0.0315
36.45	0.674	0.07
36.5	0.7115	0.1025
36.55	0.7465	0.134
36.6	0.7745	0.155
36.65	0.8005	0.1755
36.7	0.8195	0.187
36.75	0.83	0.1915
36.8	0.8325	0.184
36.85	0.8275	0.174
36.9	0.8165	0.1565
36.95	0.8025	0.132
37	0.778	0.101
37.05	0.748	0.066
37.1	0.713	0.0295
37.15	0.678	-0.0085
37.2	0.636	-0.0525
37.25	0.595	-0.093
37.3	0.5485	-0.1375
37.35	0.507	-0.176
37.4	0.4615	-0.2165
37.45	0.423	-0.2475
37.5	0.3875	-0.278
37.55	0.3575	-0.2975
37.6	0.332	-0.318
37.65	0.314	-0.33
37.7	0.302	-0.3375
37.75	0.297	-0.333
37.8	0.2975	-0.327
37.85	0.3075	-0.3035
37.9	0.322	-0.283
37.95	0.345	-0.2575
38	0.372	-0.226
38.05	0.4035	-0.185
38.1	0.4415	-0.1475
38.15	0.4845	-0.104
38.2	0.526	-0.0625
38.25	0.5675	-0.02
38.3	0.611	0.0195
38.35	0.654	0.0635
38.4	0.691	0.0925
38.45	0.731	0.126
38.5	0.761	0.1495
38.55	0.7895	0.1675
38.6	0.81	0.179
38.65	0.824	0.1875
38.7	0.8285	0.183
38.75	0.829	0.1745
38.8	0.822	0.162
38.85	0.81	0.142
38.9	0.788	0.1115
38.95	0.761	0.083
39	0.7265	0.046
39.05	0.69	0.006
39.1	0.6505	-0.039
39.15	0.609	-0.0795
39.2	0.5625	-0.125
39.25	0.5215	-0.161
39.3	0.4775	-0.2035
39.35	0.4375	-0.2355
39.4	0.4	-0.2705
39.45	0.3685	-0.293
39.5	0.3405	-0.3125
39.55	0.3235	-0.325
39.6	0.3065	-0.335
39.65	0.2985	-0.332
39.7	0.297	-0.33
39.75	0.3025	-0.314
39.8	0.3145	-0.298
39.85	0.3375	-0.268
39.9	0.3615	-0.237
39.95	0.391	-0.199
40	0.4245	-0.1625
40.05	0.468	-0.119
40.1	0.512	-0.0815
40.15	0.555	-0.036
40.2	0.5955	0.0065
40.25	0.6405	0.046
40.3	0.6825	0.0795
40.35	0.722	0.117
40.4	0.7545	0.1405
40.45	0.785	0.162
40.5	0.8065	0.172
40.55	0.8245	0.1835
40.6	0.829	0.183
40.65	0.8345	0.1795
40.7	0.8245	0.1655
40.75	0.8145	0.149
40.8	0.7945	0.1215
40.85	0.7725	0.092
40.9	0.7405	0.0525
40.95	0.7055	0.019
41	0.6655	-0.025
41.05	0.6255	-0.065
41.1	0.581	-0.1055
41.15	0.538	-0.1485
41.2	0.4935	-0.1905
41.25	0.456	-0.2235
41.3	0.415	-0.2575
41.35	0.3825	-0.2805
41.4	0.3505	-0.304
41.45	0.3285	-0.3195
41.5	0.312	-0.328
41.55	0.303	-0.3295
41.6	0.2955	-0.3275
41.65	0.3015	-0.312
41.7	0.312	-0.299
41.75	0.332	-0.2755
41.8	0.3525	-0.2495
41.85	0.382	-0.213
41.9	0.4155	-0.1775
41.95	0.4545	-0.1365
42	0.494	-0.095
42.05	0.539	-0.051
42.1	0.58	-0.012
42.15	0.6225	0.0325
42.2	0.6645	0.0695
42.25	0.707	0.1055
42.3	0.741	0.1285
42.35	0.7745	0.1545
42.4	0.797	0.172
42.45	0.8155	0.1855
42.5	0.8235	0.185
42.55	0.832	0.1825
42.6	0.83	0.17
42.65	0.8215	0.1575
42.7	0.804	0.1335
42.75	0.7835	0.105
42.8	0.754	0.0695
42.85	0.721	0.035
42.9	0.683	-0.0055
42.95	0.6435	-0.0445
43	0.5975	-0.0895
43.05	0.557	-0.1315
43.1	0.512	-0.174
43.15	0.472	-0.21
43.2	0.4305	-0.2455
43.25	0.395	-0.2705
43.3	0.3605	-0.2955
43.35	0.3335	-0.316
43.4	0.312	-0.33
43.45	0.3015	-0.3315
43.5	0.295	-0.331
43.55	0.2975	-0.32
43.6	0.304	-0.307
43.65	0.322	-0.2825
43.7	0.3425	-0.259
43.75	0.373	-0.223
43.8	0.401	-0.19
43.85	0.4405	-0.147
43.9	0.48	-0.108
43.95	0.5225	-0.063
44	0.567	-0.022
44.05	0.608	0.018
44.1	0.651	0.0545
44.15	0.6915	0.092
44.2	0.7285	0.1205
44.25	0.762	0.146
44.3	0.7865	0.1655
44.35	0.808	0.1765
44.4	0.8215	0.1835
44.45	0.8325	0.183
44.5	0.8315	0.173
44.55	0.822	0.1615
44.6	0.8075	0.1395
44.65	0.7915	0.116
44.7	0.7615	0.0825
44.75	0.7305	0.048
44.8	0.6945	0.0065
44.85	0.657	-0.0305
44.9	0.612	-0.0765
44.95	0.5685	-0.12
45	0.5245	-0.162
45.05	0.4825	-0.1985
45.1	0.442	-0.231
45.15	0.4055	-0.262
45.2	0.37	-0.291
45.25	0.3435	-0.308
45.3	0.32	-0.325
45.35	0.308	-0.3305
45.4	0.3	-0.3335
45.45	0.302	-0.324
45.5	0.3055	-0.3155
45.55	0.32	-0.2945
45.6	0.336	-0.2715
45.65	0.3625	-0.238
45.7	0.389	-0.205
45.75	0.4275	-0.1645
45.8	0.4645	-0.1235
45.85	0.507	-0.081
45.9	0.5475	-0.0445
45.95	0.5905	0.001
46	0.632	0.038
46.05	0.676	0.078
46.1	0.7125	0.107
46.15	0.747	0.1385
46.2	0.7745	0.157
46.25	0.8015	0.1735
46.3	0.8185	0.181
46.35	0.8285	0.1865
46.4	0.8295	0.1775
46.45	0.827	0.167
46.5	0.8165	0.149
46.55	0.799	0.126
46.6	0.7745	0.0935
46.65	0.7465	0.06
46.7	0.7125	0.022
46.75	0.674	-0.018
46.8	0.63	-0.0625
46.85	0.587	-0.1035
46.9	0.541	-0.145
46.95	0.4975	-0.1825
47	0.457	-0.2195
47.05	0.42	-0.252
47.1	0.383	-0.282
47.15	0.3525	-0.304
47.2	0.325	-0.3225
47.25	0.3095	-0.3305
47.3	0.298	-0.335
47.35	0.2965	-0.3275
47.4	0.2985	-0.3195
47.45	0.31	-0.3005
47.5	0.3265	-0.2775
47.55	0.35	-0.247
47.6	0.3775	-0.216
47.65	0.4145	-0.1755
47.7	0.4495	-0.1365
47.75	0.491	-0.0955
47.8	0.5325	-0.056
47.85	0.578	-0.014
47.9	0.621	0.023
47.95	0.661	0.064
48	0.7005	0.098
48.05	0.7395	0.1285
48.1	0.7675	0.151
48.15	0.7935	0.1705
48.2	0.815	0.181
48.25	0.828	0.1845
48.3	0.831	0.18
48.35	0.8305	0.1715
48.4	0.8225	0.154
48.45	0.807	0.133
48.5	0.783	0.1025
48.55	0.7585	0.074
48.6	0.726	0.0355
48.65	0.689	-0.003
48.7	0.646	-0.0465
48.75	0.605	-0.0845
48.8	0.561	-0.1295
48.85	0.5165	-0.168
48.9	0.4725	-0.2075
48.95	0.4335	-0.2395
49	0.3935	-0.272
49.05	0.3615	-0.2965
49.1	0.333	-0.3155
49.15	0.3135	-0.3255
49.2	0.303	-0.3315
49.25	0.2985	-0.326
49.3	0.2985	-0.3215
49.35	0.3075	-0.3045
49.4	0.3205	-0.285
49.45	0.3435	-0.259
49.5	0.368	-0.226
49.55	0.399	-0.1905
49.6	0.434	-0.1535
49.65	0.475	-0.1095
49.7	0.517	-0.072
49.75	0.5625	-0.031
49.8	0.6055	0.0115
49.85	0.644	0.052
49.9	0.6835	0.084
49.95	0.722	0.1155
50	0.756	0.139
50.05	0.785	0.1595
50.1	0.805	0.172
50.15	0.8215	0.18
50.2	0.831	0.178
50.25	0.8325	0.1735
50.3	0.8275	0.158
50.35	0.8165	0.1395
50.4	0.794	0.113
50.45	0.77	0.0825
50.5	0.736	0.046
50.55	0.7005	0.0105
50.6	0.661	-0.0325
50.65	0.619	-0.072
50.7	0.5745	-0.114
50.75	0.5335	-0.153
50.8	0.4895	-0.1915
50.85	0.4505	-0.2265
50.9	0.413	-0.2585
50.95	0.38	-0.2855
51	0.3505	-0.307
51.05	0.3255	-0.3185
51.1	0.308	-0.3295
51.15	0.297	-0.328
51.2	0.293	-0.322
51.25	0.3015	-0.31
51.3	0.313	-0.291
51.35	0.33	-0.2655
51.4	0.3525	-0.238
51.45	0.3875	-0.203
51.5	0.4215	-0.167
51.55	0.459	-0.125
51.6	0.5	-0.084
51.65	0.544	-0.042
51.7	0.5865	-0.0045
51.75	0.6325	0.037
51.8	0.676	0.072
51.85	0.7165	0.1055
51.9	0.747	0.13
51.95	0.7775	0.1545
52	0.8005	0.17
52.05	0.8175	0.177
52.1	0.826	0.1805
52.15	0.83	0.1765
52.2	0.8265	0.1655
52.25	0.8195	0.149
52.3	0.802	0.122
52.35	0.778	0.0945
52.4	0.7475	0.0635
52.45	0.7125	0.029
52.5	0.673	-0.0145
52.55	0.6325	-0.058
52.6	0.5915	-0.1
52.65	0.5495	-0.14
52.7	0.505	-0.1785
52.75	0.4635	-0.212
52.8	0.426	-0.247
52.85	0.39	-0.2775
52.9	0.3575	-0.299
52.95	0.334	-0.316
53	0.317	-0.328
53.05	0.304	-0.332
53.1	0.2985	-0.3275
53.15	0.2985	-0.316
53.2	0.306	-0.3
53.25	0.3235	-0.2745
53.3	0.3475	-0.2465
53.35	0.376	-0.2165
53.4	0.41	-0.181
53.45	0.4465	-0.142
53.5	0.4885	-0.0985
53.55	0.529	-0.057
53.6	0.5725	-0.018
53.65	0.6155	0.023
53.7	0.657	0.0585
53.75	0.6955	0.092
53.8	0.731	0.1245
53.85	0.764	0.147
53.9	0.7925	0.164
53.95	0.8115	0.174
54	0.8275	0.179
54.05	0.8325	0.1765
54.1	0.831	0.169
54.15	0.822	0.1535
54.2	0.8085	0.131
54.25	0.7855	0.103
54.3	0.76	0.0735
54.35	0.727	0.037
54.4	0.69	-0.0015
54.45	0.647	-0.0425
54.5	0.606	-0.088
54.55	0.5645	-0.1295
54.6	0.519	-0.1665
54.65	0.4755	-0.2045
54.7	0.434	-0.2385
54.75	0.398	-0.2675
54.8	0.3655	-0.29
54.85	0.339	-0.308
54.9	0.321	-0.3205
54.95	0.307	-0.3305
55	0.299	-0.3275
55.05	0.2985	-0.3215
55.1	0.3045	-0.3075
55.15	0.319	-0.287
55.2	0.3375	-0.2615
55.25	0.3615	-0.2305
55.3	0.3935	-0.1945
55.35	0.4305	-0.156
55.4	0.472	-0.1145
55.45	0.5115	-0.0735
55.5	0.554	-0.033
55.55	0.5985	0.0085
55.6	0.641	0.045
55.65	0.6825	0.0815
55.7	0.72	0.1135
55.75	0.752	0.138
55.8	0.7805	0.1575
55.85	0.8015	0.1715
55.9	0.8175	0.179
55.95	0.8275	0.1765
56	0.831	0.1705
56.05	0.825	0.159
56.1	0.813	0.142
56.15	0.7965	0.1175
56.2	0.7735	0.084
56.25	0.7405	0.051
56.3	0.706	0.0155
56.35	0.6655	-0.0255
56.4	0.624	-0.0675
56.45	0.578	-0.1105
56.5	0.534	-0.151
56.55	0.4895	-0.191
56.6	0.4505	-0.227
56.65	0.412	-0.26
56.7	0.3795	-0.282
56.75	0.35	-0.3035
56.8	0.3275	-0.3175
56.85	0.3105	-0.328
56.9	0.301	-0.331
56.95	0.296	-0.328
57	0.3005	-0.315
57.05	0.31	-0.294
57.1	0.327	-0.267
57.15	0.352	-0.239
57.2	0.3815	-0.206
57.25	0.415	-0.1695
57.3	0.4565	-0.1265
57.35	0.4975	-0.0875
57.4	0.5435	-0.047
57.45	0.585	-0.0045
57.5	0.6285	0.036
57.55	0.668	0.0715
57.6	0.7085	0.102
57.65	0.742	0.127
57.7	0.773	0.1535
57.75	0.796	0.1675
57.8	0.818	0.1785
57.85	0.828	0.179
57.9	0.833	0.177
57.95	0.8305	0.1645
58	0.8225	0.1515
58.05	0.805	0.1245
58.1	0.783	0.0965
58.15	0.752	0.062
58.2	0.719	0.025
58.25	0.678	-0.015
58.3	0.637	-0.0565
58.35	0.593	-0.0985
58.4	0.5515	-0.138
58.45	0.505	-0.1775
58.5	0.4655	-0.211
58.55	0.4245	-0.246
58.6	0.391	-0.2735
58.65	0.3565	-0.298
58.7	0.3345	-0.313
58.75	0.3135	-0.324
58.8	0.303	-0.3265
58.85	0.292	-0.3245
58.9	0.2945	-0.316
58.95	0.3015	-0.301
59	0.321	-0.277
59.05	0.341	-0.2505
59.1	0.3675	-0.2165
59.15	0.4	-0.18
59.2	0.4385	-0.1425
59.25	0.478	-0.103
59.3	0.5205	-0.06
59.35	0.5655	-0.02
59.4	0.6105	0.021
59.45	0.6525	0.0575
59.5	0.6935	0.094
59.55	0.7295	0.1225
59.6	0.7625	0.1445
59.65	0.786	0.162
59.7	0.8075	0.177
59.75	0.8225	0.1785
59.8	0.833	0.179
59.85	0.8325	0.167
59.9	0.827	0.1535
59.95	0.8125	0.1305
60	0.79	0.1055
60.05	0.764	0.074
60.1	0.732	0.0385
60.15	0.6955	0
60.2	0.6555	-0.042
60.25	0.611	-0.083
60.3	0.5695	-0.121
60.35	0.527	-0.1595
60.4	0.4835	-0.199
60.45	0.4415	-0.2335
60.5	0.405	-0.265
60.55	0.3695	-0.289
60.6	0.3425	-0.3095
60.65	0.3225	-0.321
60.7	0.3065	-0.326
60.75	0.297	-0.3265
60.8	0.2965	-0.3185
60.85	0.3015	-0.3085
60.9	0.316	-0.2895
60.95	0.3355	-0.264
61	0.363	-0.232
61.05	0.391	-0.199
61.1	0.4255	-0.1565
61.15	0.465	-0.1205
61.2	0.508	-0.0785
61.25	0.551	-0.041
61.3	0.593	0.003
61.35	0.6365	0.04
61.4	0.678	0.0755
61.45	0.7155	0.107
61.5	0.7515	0.1325
61.55	0.777	0.153
61.6	0.799	0.1685
61.65	0.8165	0.1775
61.7	0.8265	0.18
61.75	0.8285	0.17
61.8	0.828	0.1625
61.85	0.8155	0.1425
61.9	0.8	0.1185
61.95	0.774	0.086
62	0.7445	0.0535
62.05	0.7075	0.016
62.1	0.671	-0.023
62.15	0.6295	-0.065
62.2	0.587	-0.1075
62.25	0.541	-0.145
62.3	0.499	-0.1825
62.35	0.4545	-0.2185
62.4	0.416	-0.2495
62.45	0.382	-0.2775
62.5	0.3545	-0.3
62.55	0.33	-0.3175
62.6	0.313	-0.325
62.65	0.3	-0.328
62.7	0.296	-0.322
62.75	0.301	-0.311
62.8	0.3105	-0.2955
62.85	0.3255	-0.273
62.9	0.349	-0.243
62.95	0.3775	-0.21
63	0.4125	-0.1725
63.05	0.4515	-0.1355
63.1	0.493	-0.092
63.15	0.533	-0.052
63.2	0.5795	-0.009
63.25	0.6205	0.0285
63.3	0.6645	0.0685
63.35	0.7015	0.099
63.4	0.7395	0.128
63.45	0.7675	0.1475
63.5	0.7945	0.1645
63.55	0.813	0.172
63.6	0.827	0.177
63.65	0.832	0.1715
63.7	0.832	0.164
63.75	0.8205	0.1475
63.8	0.804	0.1255
63.85	0.782	0.095
63.9	0.7575	0.0685
63.95	0.722	0.026
64	0.6885	-0.0095
64.05	0.647	-0.05
64.1	0.6045	-0.089
64.15	0.559	-0.1335
64.2	0.516	-0.1705
64.25	0.4695	-0.209
64.3	0.432	-0.242
64.35	0.3935	-0.268
64.4	0.366	-0.289
64.45	0.3395	-0.308
64.5	0.32	-0.319
64.55	0.305	-0.328
64.6	0.3	-0.3255
64.65	0.3	-0.316
64.7	0.307	-0.2975
64.75	0.32	-0.2785
64.8	0.3405	-0.2515
64.85	0.3635	-0.2205
64.9	0.399	-0.181
64.95	0.4355	-0.1435
65	0.4775	-0.104
65.05	0.518	-0.065
65.1	0.5635	-0.027
65.15	0.603	0.0135
65.2	0.648	0.054
65.25	0.6885	0.0845
65.3	0.7255	0.116
65.35	0.7585	0.1385
65.4	0.787	0.159
65.45	0.806	0.171
65.5	0.824	0.1805
65.55	0.833	0.177
65.6	0.8325	0.1715
65.65	0.826	0.1535
65.7	0.8145	0.1355
65.75	0.792	0.1095
65.8	0.7685	0.0805
65.85	0.7355	0.0435
65.9	0.7	0.007
65.95	0.6595	-0.0365
66	0.619	-0.076
66.05	0.5725	-0.119
66.1	0.526	-0.1575
66.15	0.483	-0.1965
66.2	0.445	-0.227
66.25	0.4065	-0.259
66.3	0.3765	-0.284
66.35	0.346	-0.306
66.4	0.327	-0.319
66.45	0.3085	-0.327
66.5	0.2995	-0.3245
66.55	0.2965	-0.3225
66.6	0.301	-0.3035
66.65	0.3125	-0.2855
66.7	0.3315	-0.2605
66.75	0.353	-0.2335
66.8	0.3845	-0.1985
66.85	0.4185	-0.1645
66.9	0.459	-0.1205
66.95	0.4985	-0.083
67	0.546	-0.039
67.05	0.589	0.001
67.1	0.6355	0.04
67.15	0.673	0.0715
67.2	0.7135	0.106
67.25	0.7445	0.1295
67.3	0.776	0.15
67.35	0.7985	0.164
67.4	0.8195	0.173
67.45	0.827	0.1745
67.5	0.8315	0.175
67.55	0.8285	0.1595
67.6	0.8175	0.141
67.65	0.7995	0.114
67.7	0.778	0.087
67.75	0.746	0.055
67.8	0.715	0.016
67.85	0.6745	-0.025
67.9	0.6345	-0.066
67.95	0.591	-0.108
68	0.549	-0.1465
68.05	0.503	-0.183
68.1	0.463	-0.2155
68.15	0.4235	-0.2485
68.2	0.3865	-0.272
68.25	0.351	-0.293
68.3	0.3295	-0.309
68.35	0.312	-0.3225
68.4	0.302	-0.321
68.45	0.294	-0.32
68.5	0.2975	-0.307
68.55	0.305	-0.2915
68.6	0.3205	-0.269
68.65	0.3435	-0.2435
68.7	0.3705	-0.2085
68.75	0.403	-0.1715
68.8	0.441	-0.1295
68.85	0.481	-0.0915
68.9	0.526	-0.0485
68.95	0.5685	-0.0115
69	0.6155	0.029
69.05	0.655	0.0585
69.1	0.697	0.0955
69.15	0.735	0.1215
69.2	0.7665	0.1435
69.25	0.7905	0.1575
69.3	0.812	0.1715
69.35	0.822	0.1725
69.4	0.8295	0.1725
69.45	0.827	0.165
69.5	0.821	0.151
69.55	0.804	0.1225
69.6	0.7845	0.1005
69.65	0.7555	0.0675
69.7	0.7235	0.0305
69.75	0.687	-0.0105
69.8	0.649	-0.048
69.85	0.604	-0.088
69.9	0.5615	-0.125
69.95	0.5175	-0.167
70	0.4765	-0.2045
70.05	0.4335	-0.2395
70.1	0.401	-0.2675
70.15	0.367	-0.291
70.2	0.3435	-0.3075
70.25	0.32	-0.32
70.3	0.3055	-0.325
70.35	0.296	-0.322
70.4	0.297	-0.311
70.45	0.3035	-0.3
70.5	0.3195	-0.2765
70.55	0.337	-0.2535
70.6	0.3635	-0.219
70.65	0.394	-0.186
70.7	0.432	-0.148
70.75	0.47	-0.1105
70.8	0.513	-0.069
70.85	0.5565	-0.0295
70.9	0.6	0.011
70.95	0.6385	0.0485
71	0.6795	0.0835
71.05	0.7165	0.1145
71.1	0.753	0.139
71.15	0.7775	0.1565
71.2	0.801	0.168
71.25	0.818	0.174
71.3	0.8295	0.1755
71.35	0.8275	0.167
71.4	0.822	0.155
71.45	0.8085	0.1325
71.5	0.791	0.112
71.55	0.765	0.0785
71.6	0.7395	0.0455
71.65	0.702	0.006
71.7	0.6635	-0.0335
71.75	0.619	-0.075
71.8	0.5785	-0.112
71.85	0.535	-0.1525
71.9	0.4945	-0.1895
71.95	0.4545	-0.225
72	0.4175	-0.2535
72.05	0.3825	-0.284
72.1	0.3525	-0.302
72.15	0.3285	-0.316
72.2	0.3115	-0.322
72.25	0.2975	-0.3255
72.3	0.297	-0.3175
72.35	0.3005	-0.3095
72.4	0.3095	-0.2875
72.45	0.327	-0.2615
72.5	0.3515	-0.2285
72.55	0.381	-0.199
72.6	0.4165	-0.1605
72.65	0.4555	-0.1235
72.7	0.497	-0.0805
72.75	0.5395	-0.042
72.8	0.583	-0.001
72.85	0.6265	0.0345
72.9	0.672	0.0725
72.95	0.708	0.101
73	0.743	0.1275
73.05	0.7715	0.1455
73.1	0.7985	0.163
73.15	0.817	0.1705
73.2	0.83	0.173
73.25	0.83	0.165
73.3	0.826	0.159
73.35	0.815	0.1435
73.4	0.8005	0.119
73.45	0.778	0.09
73.5	0.748	0.059
73.55	0.713	0.021
73.6	0.6765	-0.018
73.65	0.6355	-0.06
73.7	0.595	-0.098
73.75	0.55	-0.1405
73.8	0.508	-0.176
73.85	0.4645	-0.2115
73.9	0.427	-0.2425
73.95	0.388	-0.2735
74	0.3575	-0.2935
74.05	0.3315	-0.311
74.1	0.312	-0.318
74.15	0.2985	-0.323
74.2	0.293	-0.319
74.25	0.2945	-0.309
74.3	0.3035	-0.291
74.35	0.3195	-0.269
74.4	0.344	-0.241
74.45	0.3705	-0.2115
74.5	0.4055	-0.1745
74.55	0.4415	-0.1375
74.6	0.484	-0.096
74.65	0.5265	-0.056
74.7	0.569	-0.015
74.75	0.6115	0.021
74.8	0.655	0.0575
74.85	0.696	0.0905
74.9	0.7325	0.121
74.95	0.761	0.144
75	0.789	0.159
75.05	0.81	0.169
75.1	0.825	0.1765
75.15	0.829	0.1745
75.2	0.829	0.167
75.25	0.825	0.149
75.3	0.811	0.127
75.35	0.79	0.0985
75.4	0.7655	0.072
75.45	0.729	0.0335
75.5	0.693	-0.0045
75.55	0.6505	-0.045
75.6	0.6055	-0.0855
75.65	0.562	-0.13
75.7	0.522	-0.167
75.75	0.4795	-0.202
75.8	0.4415	-0.232
75.85	0.403	-0.262
75.9	0.3715	-0.286
75.95	0.343	-0.305
76	0.324	-0.3125
76.05	0.3075	-0.321
76.1	0.298	-0.321
76.15	0.2955	-0.3145
76.2	0.303	-0.2985
76.25	0.316	-0.279
76.3	0.3355	-0.2495
76.35	0.359	-0.223
76.4	0.39	-0.1855
76.45	0.4245	-0.1505
76.5	0.4615	-0.111
76.55	0.5055	-0.07
76.6	0.549	-0.0315
76.65	0.591	0.0055
76.7	0.6355	0.046
76.75	0.6745	0.0805
76.8	0.713	0.108
76.85	0.7475	0.1345
76.9	0.777	0.1545
76.95	0.8	0.1675
77	0.818	0.1745
77.05	0.8275	0.174
77.1	0.8305	0.1655
77.15	0.8245	0.152
77.2	0.812	0.1345
77.25	0.792	0.109
77.3	0.7675	0.0775
77.35	0.738	0.043
77.4	0.7025	0.007
77.45	0.666	-0.0295
77.5	0.6255	-0.0725
77.55	0.583	-0.1125
77.6	0.538	-0.152
77.65	0.4955	-0.1915
77.7	0.4545	-0.2255
77.75	0.4165	-0.2545
77.8	0.381	-0.284
77.85	0.3515	-0.2995
77.9	0.327	-0.313
77.95	0.3105	-0.322
78	0.3	-0.321
78.05	0.297	-0.316
78.1	0.3015	-0.3055
78.15	0.314	-0.2865
78.2	0.3285	-0.262
78.25	0.353	-0.233
78.3	0.381	-0.1995
78.35	0.4145	-0.162
78.4	0.452	-0.1265
78.45	0.495	-0.0855
78.5	0.5345	-0.043
78.55	0.579	-0.001
78.6	0.622	0.0335
78.65	0.663	0.068
78.7	0.702	0.0975
78.75	0.7375	0.1245
78.8	0.768	0.1475
78.85	0.7915	0.159
78.9	0.809	0.1685
78.95	0.8215	0.174
79	0.826	0.1705
79.05	0.8265	0.1595
79.1	0.815	0.142
79.15	0.8025	0.1205
79.2	0.7805	0.0895
79.25	0.755	0.0605
79.3	0.72	0.0235
79.35	0.6815	-0.0155
79.4	0.637	-0.0565
79.45	0.5925	-0.098
79.5	0.549	-0.138
79.55	0.508	-0.1735
79.6	0.4675	-0.211
79.65	0.4285	-0.241
79.7	0.3925	-0.2695
79.75	0.3635	-0.291
79.8	0.3365	-0.3065
79.85	0.318	-0.315
79.9	0.302	-0.319
79.95	0.2965	-0.3185
80	0.2965	-0.3105
80.05	0.3035	-0.293
80.1	0.317	-0.273
80.15	0.3395	-0.245
80.2	0.3655	-0.213
80.25	0.399	-0.1775
80.3	0.4375	-0.14
80.35	0.4775	-0.0995
80.4	0.5205	-0.0605
80.45	0.566	-0.0175
80.5	0.6065	0.02
80.55	0.65	0.0535
80.6	0.689	0.0845
80.65	0.7275	0.114
80.7	0.759	0.1385
80.75	0.787	0.1575
80.8	0.8085	0.168
80.85	0.823	0.174
80.9	0.8275	0.1705
80.95	0.829	0.1615
81	0.8235	0.147
81.05	0.813	0.1295
81.1	0.7915	0.102
81.15	0.765	0.0715
81.2	0.734	0.033
81.25	0.6965	-0.002
81.3	0.6575	-0.041
81.35	0.618	-0.0815
81.4	0.574	-0.125
81.45	0.5295	-0.1655
81.5	0.489	-0.1995
81.55	0.4475	-0.23
81.6	0.408	-0.2595
81.65	0.3745	-0.285
81.7	0.346	-0.302
81.75	0.3225	-0.3135
81.8	0.3055	-0.3205
81.85	0.298	-0.318
81.9	0.295	-0.3135
81.95	0.3015	-0.2995
82	0.311	-0.284
82.05	0.3295	-0.2555
82.1	0.3545	-0.224
82.15	0.388	-0.1895
82.2	0.422	-0.1525
82.25	0.463	-0.1125
82.3	0.502	-0.074
82.35	0.5455	-0.031
82.4	0.588	0.0065
82.45	0.6305	0.044
82.5	0.672	0.076
82.55	0.71	0.1045
82.6	0.7415	0.13
82.65	0.7735	0.1525
82.7	0.7985	0.1625
82.75	0.816	0.1695
82.8	0.826	0.1715
82.85	0.8305	0.1655
82.9	0.8265	0.15
82.95	0.817	0.132
83	0.7975	0.1085
83.05	0.7725	0.083
83.1	0.739	0.0485
83.15	0.71	0.011
83.2	0.6745	-0.029
83.25	0.633	-0.0685
83.3	0.59	-0.1105
83.35	0.545	-0.145
83.4	0.5	-0.1855
83.45	0.458	-0.2205
83.5	0.421	-0.2535
83.55	0.387	-0.275
83.6	0.357	-0.297
83.65	0.3315	-0.3075
83.7	0.312	-0.3185
83.75	0.302	-0.32
83.8	0.2965	-0.3175
83.85	0.298	-0.306
83.9	0.3055	-0.2885
83.95	0.3235	-0.2655
84	0.3435	-0.2385
84.05	0.374	-0.2015
84.1	0.41	-0.165
84.15	0.449	-0.125
84.2	0.4875	-0.0885
84.25	0.531	-0.0465
84.3	0.5735	-0.009
84.35	0.6155	0.03
84.4	0.658	0.065
84.45	0.702	0.098
84.5	0.7355	0.12
84.55	0.768	0.146
84.6	0.793	0.16
84.65	0.8145	0.17
84.7	0.825	0.1705
84.75	0.832	0.167
84.8	0.829	0.154
84.85	0.821	0.1405
84.9	0.806	0.117
84.95	0.784	0.094
85	0.757	0.06
85.05	0.725	0.026
85.1	0.6855	-0.015
85.15	0.646	-0.055
85.2	0.602	-0.0965
85.25	0.5595	-0.13
85.3	0.5145	-0.1715
85.35	0.472	-0.2065
85.4	0.432	-0.2405
85.45	0.396	-0.2665
85.5	0.362	-0.29
85.55	0.3395	-0.305
85.6	0.319	-0.319
85.65	0.3055	-0.3215
85.7	0.2965	-0.319
85.75	0.299	-0.3065
85.8	0.303	-0.292
85.85	0.3155	-0.2705
85.9	0.3355	-0.2455
85.95	0.3625	-0.2125
86	0.3945	-0.178
86.05	0.4315	-0.14
86.1	0.472	-0.1035
86.15	0.5145	-0.062
86.2	0.558	-0.025
86.25	0.6025	0.0165
86.3	0.6455	0.0525
86.35	0.686	0.0835
86.4	0.7195	0.1085
86.45	0.754	0.134
86.5	0.781	0.154
86.55	0.804	0.1645
86.6	0.818	0.168
86.65	0.828	0.168
86.7	0.8305	0.159
86.75	0.828	0.146
86.8	0.813	0.126
86.85	0.797	0.1035
86.9	0.769	0.07
86.95	0.7395	0.038
87	0.7025	-0.0005
87.05	0.662	-0.0395
87.1	0.6205	-0.0815
87.15	0.5785	-0.1195
87.2	0.536	-0.1585
87.25	0.4925	-0.193
87.3	0.4485	-0.2295
87.35	0.412	-0.2565
87.4	0.377	-0.282
87.45	0.3495	-0.297
87.5	0.323	-0.3105
87.55	0.3085	-0.316
87.6	0.2985	-0.315
87.65	0.299	-0.3085
87.7	0.3025	-0.2985
87.75	0.3155	-0.2765
87.8	0.332	-0.2525
87.85	0.358	-0.223
87.9	0.3885	-0.1915
87.95	0.4245	-0.1545
88	0.461	-0.1165
88.05	0.501	-0.076
88.1	0.545	-0.037
88.15	0.5905	0.005
88.2	0.631	0.038
88.25	0.673	0.073
88.3	0.7115	0.1
88.35	0.748	0.1275
88.4	0.7755	0.1455
88.45	0.798	0.162
88.5	0.8135	0.167
88.55	0.8265	0.1695
88.6	0.829	0.1625
88.65	0.828	0.155
88.7	0.8175	0.134
88.75	0.8015	0.1105
88.8	0.778	0.08
88.85	0.7495	0.0485
88.9	0.713	0.012
88.95	0.6765	-0.024
89	0.6325	-0.069
89.05	0.592	-0.106
89.1	0.5475	-0.147
89.15	0.503	-0.1795
89.2	0.461	-0.216
89.25	0.423	-0.246
89.3	0.3845	-0.2725
89.35	0.3595	-0.291
89.4	0.3335	-0.308
89.45	0.3155	-0.3145
89.5	0.3025	-0.3175
89.55	0.3	-0.311
89.6	0.2985	-0.2995
89.65	0.309	-0.282
89.7	0.32	-0.264
89.75	0.341	-0.233
89.8	0.368	-0.2055
89.85	0.4055	-0.169
89.9	0.442	-0.133
89.95	0.4835	-0.09
90	0.526	-0.0525
90.05	0.5735	-0.0085
90.1	0.6125	0.0245
90.15	0.657	0.0595
90.2	0.696	0.087
90.25	0.733	0.1175
90.3	0.764	0.138
90.35	0.7915	0.155
90.4	0.808	0.161
90.45	0.823	0.1635
90.5	0.828	0.161
90.55	0.831	0.1555
90.6	0.821	0.1365
90.65	0.809	0.1205
90.7	0.785	0.094
90.75	0.7605	0.0625
90.8	0.726	0.0275
90.85	0.6895	-0.0095
90.9	0.6495	-0.0535
90.95	0.6075	-0.0925
91	0.5615	-0.132
91.05	0.5245	-0.1655
91.1	0.4805	-0.2025
91.15	0.44	-0.234
91.2	0.401	-0.265
91.25	0.3695	-0.286
91.3	0.3385	-0.3035
91.35	0.3205	-0.3135
91.4	0.3045	-0.3185
91.45	0.297	-0.314
91.5	0.2955	-0.307
91.55	0.302	-0.2905
91.6	0.313	-0.2715
91.65	0.3355	-0.245
91.7	0.3625	-0.2165
91.75	0.3955	-0.1805
91.8	0.429	-0.148
91.85	0.4705	-0.105
91.9	0.5095	-0.0685
91.95	0.554	-0.024
92	0.594	0.0125
92.05	0.64	0.0485
92.1	0.6795	0.0775
92.15	0.7175	0.109
92.2	0.75	0.1305
92.25	0.778	0.151
92.3	0.801	0.161
92.35	0.8175	0.1675
92.4	0.8265	0.1635
92.45	0.832	0.1615
92.5	0.827	0.147
92.55	0.814	0.1295
92.6	0.7925	0.101
92.65	0.768	0.075
92.7	0.7395	0.039
92.75	0.706	0.002
92.8	0.667	-0.0395
92.85	0.6275	-0.0755
92.9	0.5835	-0.1165
92.95	0.542	-0.155
93	0.4995	-0.191
93.05	0.4605	-0.2245
93.1	0.422	-0.252
93.15	0.388	-0.2745
93.2	0.3555	-0.2955
93.25	0.33	-0.3075
93.3	0.3115	-0.3195
93.35	0.301	-0.3185
93.4	0.297	-0.3125
93.45	0.3035	-0.299
93.5	0.311	-0.281
93.55	0.3265	-0.255
93.6	0.3485	-0.227
93.65	0.3795	-0.193
93.7	0.4125	-0.157
93.75	0.4515	-0.116
93.8	0.491	-0.0805
93.85	0.535	-0.04
93.9	0.5795	-0.0055
93.95	0.6245	0.034
94	0.666	0.067
94.05	0.7055	0.1005
94.1	0.7385	0.124
94.15	0.766	0.1445
94.2	0.7915	0.157
94.25	0.8125	0.167
94.3	0.824	0.163
94.35	0.833	0.16
94.4	0.8295	0.1495
94.45	0.8205	0.1385
94.5	0.8025	0.1115
94.55	0.7805	0.0835
94.6	0.749	0.049
94.65	0.7155	0.015
94.7	0.6765	-0.026
94.75	0.6365	-0.061
94.8	0.591	-0.1035
94.85	0.5495	-0.139
94.9	0.506	-0.1755
94.95	0.4685	-0.2115
95	0.4285	-0.2435
95.05	0.394	-0.2655
95.1	0.3615	-0.2865
95.15	0.338	-0.3005
95.2	0.3195	-0.312
95.25	0.3075	-0.315
95.3	0.299	-0.3135
95.35	0.3005	-0.3
95.4	0.3055	-0.2875
95.45	0.322	-0.2635
95.5	0.3435	-0.239
95.55	0.371	-0.2045
95.6	0.4015	-0.1725
95.65	0.442	-0.131
95.7	0.479	-0.091
95.75	0.52	-0.0495
95.8	0.563	-0.0135
95.85	0.6105	0.025
95.9	0.6515	0.0555
95.95	0.69	0.0905
96	0.7235	0.1135
96.05	0.759	0.1365
96.1	0.783	0.1515
96.15	0.806	0.1645
96.2	0.82	0.168
96.25	0.831	0.165
96.3	0.8285	0.1515
96.35	0.8235	0.1405
96.4	0.807	0.119
96.45	0.7875	0.0965
96.5	0.763	0.061
96.55	0.7315	0.027
96.6	0.6945	-0.0105
96.65	0.656	-0.0465
96.7	0.614	-0.0865
96.75	0.572	-0.125
96.8	0.5255	-0.1645
96.85	0.484	-0.195
96.9	0.444	-0.2285
96.95	0.407	-0.256
97	0.37	-0.281
97.05	0.3455	-0.296
97.1	0.324	-0.3065
97.15	0.3075	-0.311
97.2	0.299	-0.3125
97.25	0.299	-0.306
97.3	0.303	-0.295
97.35	0.3165	-0.2725
97.4	0.3325	-0.249
97.45	0.358	-0.2145
97.5	0.389	-0.1855
97.55	0.4245	-0.1495
97.6	0.462	-0.1115
97.65	0.5035	-0.0705
97.7	0.5465	-0.0335
97.75	0.5925	0.0065
97.8	0.6365	0.0415
97.85	0.677	0.0735
97.9	0.7145	0.1035
97.95	0.7485	0.1285
98	0.7775	0.145
98.05	0.802	0.1625
98.1	0.8195	0.167
98.15	0.8285	0.166
98.2	0.831	0.1565
98.25	0.826	0.145
98.3	0.815	0.1235
98.35	0.799	0.1025
98.4	0.7765	0.075
98.45	0.747	0.0415
98.5	0.7105	0.006
98.55	0.6735	-0.0305
98.6	0.6295	-0.073
98.65	0.586	-0.114
98.7	0.541	-0.153
98.75	0.4985	-0.186
98.8	0.4585	-0.221
98.85	0.424	-0.25
98.9	0.385	-0.274
98.95	0.3575	-0.2915
99	0.3325	-0.3075
99.05	0.315	-0.313
99.1	0.3	-0.3155
99.15	0.298	-0.3055
99.2	0.3	-0.297
99.25	0.31	-0.277
99.3	0.328	-0.2545
99.35	0.3495	-0.224
99.4	0.378	-0.1955
99.45	0.411	-0.159
99.5	0.448	-0.122
99.55	0.491	-0.083
99.6	0.532	-0.042
99.65	0.578	-0.002
99.7	0.6205	0.032
99.75	0.6585	0.0635
99.8	0.7	0.093
99.85	0.738	0.1195
99.9	0.766	0.1395
99.95	0.7925	0.1545
100	0.812	0.164
100.05	0.8245	0.163
100.1	0.831	0.16
100.15	0.829	0.152
100.2	0.82	0.1325
100.25	0.8035	0.109
100.3	0.7805	0.081
100.35	0.7535	0.0515
100.4	0.719	0.0145
100.45	0.684	-0.022
100.5	0.6475	-0.061
100.55	0.6035	-0.099
100.6	0.558	-0.137
100.65	0.5145	-0.1735
100.7	0.472	-0.2105
100.75	0.4335	-0.238
100.8	0.398	-0.266
100.85	0.366	-0.286
100.9	0.339	-0.3005
100.95	0.32	-0.309
101	0.3065	-0.3105
101.05	0.298	-0.307
101.1	0.2975	-0.299
101.15	0.3035	-0.286
101.2	0.32	-0.2645
101.25	0.3395	-0.2395
101.3	0.366	-0.2045
101.35	0.399	-0.172
101.4	0.436	-0.1385
101.45	0.4775	-0.1
101.5	0.516	-0.0595
101.55	0.557	-0.0175
101.6	0.6015	0.0175
101.65	0.6445	0.0525
101.7	0.686	0.086
101.75	0.727	0.1125
101.8	0.7605	0.132
101.85	0.786	0.1505
101.9	0.808	0.1595
101.95	0.8215	0.1655
102	0.8305	0.1625
102.05	0.8315	0.1515
102.1	0.825	0.14
102.15	0.8125	0.118
102.2	0.792	0.0925
102.25	0.7645	0.062
102.3	0.736	0.0305
102.35	0.6985	-0.007
102.4	0.66	-0.0445
102.45	0.617	-0.087
102.5	0.573	-0.128
102.55	0.53	-0.163
102.6	0.489	-0.194
102.65	0.4475	-0.2265
102.7	0.4115	-0.2515
102.75	0.3765	-0.2775
102.8	0.3495	-0.294
102.85	0.3245	-0.305
102.9	0.311	-0.3105
102.95	0.301	-0.3115
103	0.3015	-0.304
103.05	0.3045	-0.2925
103.1	0.318	-0.2735
103.15	0.333	-0.2495
103.2	0.3565	-0.219
103.25	0.3835	-0.1855
103.3	0.4205	-0.1475
103.35	0.461	-0.113
103.4	0.502	-0.074
103.45	0.5425	-0.037
103.5	0.586	0.0055
103.55	0.628	0.038
103.6	0.6715	0.0715
103.65	0.7075	0.1015
103.7	0.744	0.1295
103.75	0.772	0.144
103.8	0.7955	0.1575
103.85	0.813	0.163
103.9	0.827	0.1615
103.95	0.8265	0.1565
104	0.8255	0.144
104.05	0.8145	0.124
104.1	0.798	0.1015
104.15	0.7735	0.0735
104.2	0.747	0.0465
104.25	0.714	0.0065
104.3	0.677	-0.0275
104.35	0.6345	-0.0685
104.4	0.593	-0.1075
104.45	0.5455	-0.1485
104.5	0.505	-0.1815
104.55	0.462	-0.2165
104.6	0.424	-0.245
104.65	0.3895	-0.268
104.7	0.3585	-0.29
104.75	0.331	-0.305
104.8	0.3145	-0.3085
104.85	0.3005	-0.311
104.9	0.2935	-0.309
104.95	0.2975	-0.297
105	0.3075	-0.2775
105.05	0.325	-0.2575
105.1	0.349	-0.225
105.15	0.378	-0.195
105.2	0.41	-0.1615
105.25	0.445	-0.124
105.3	0.4845	-0.083
105.35	0.5265	-0.049
105.4	0.5705	-0.0095
105.45	0.6125	0.028
105.5	0.655	0.0625
105.55	0.691	0.0895
105.6	0.7295	0.117
105.65	0.763	0.137
105.7	0.791	0.154
105.75	0.8105	0.1605
105.8	0.8245	0.165
105.85	0.8305	0.1575
105.9	0.8295	0.151
105.95	0.82	0.1335
106	0.807	0.1125
106.05	0.786	0.0855
106.1	0.763	0.0555
106.15	0.7275	0.022
106.2	0.692	-0.0155
106.25	0.6505	-0.056
106.3	0.608	-0.0935
106.35	0.563	-0.133
106.4	0.5225	-0.1685
106.45	0.4785	-0.203
106.5	0.439	-0.233
106.55	0.4	-0.261
106.6	0.3695	-0.2825
106.65	0.3425	-0.3
106.7	0.323	-0.308
106.75	0.3055	-0.3105
106.8	0.2995	-0.3065
106.85	0.299	-0.301
106.9	0.3085	-0.286
106.95	0.322	-0.264
107	0.3435	-0.237
107.05	0.3675	-0.209
107.1	0.4	-0.1745
107.15	0.431	-0.139
107.2	0.4725	-0.099
107.25	0.5145	-0.064
107.3	0.5555	-0.0235
107.35	0.5975	0.0135
107.4	0.6405	0.048
107.45	0.6795	0.079
107.5	0.717	0.1065
107.55	0.752	0.128
107.6	0.782	0.148
107.65	0.802	0.1565
107.7	0.818	0.165
107.75	0.828	0.1615
107.8	0.831	0.1565
107.85	0.8235	0.1395
107.9	0.813	0.122
107.95	0.796	0.0955
108	0.7705	0.068
108.05	0.7365	0.032
108.1	0.703	-0.0065
108.15	0.6625	-0.047
108.2	0.6235	-0.0805
108.25	0.5795	-0.119
108.3	0.5405	-0.154
108.35	0.496	-0.1955
108.4	0.4575	-0.226
108.45	0.4165	-0.2535
108.5	0.3815	-0.2735
108.55	0.351	-0.2925
108.6	0.3305	-0.3035
108.65	0.3125	-0.31
108.7	0.303	-0.3105
108.75	0.2965	-0.305
108.8	0.303	-0.2905
108.85	0.3105	-0.272
108.9	0.3285	-0.248
108.95	0.3505	-0.221
109	0.3815	-0.185
109.05	0.4135	-0.1505
109.1	0.453	-0.1145
109.15	0.494	-0.077
109.2	0.5385	-0.0345
109.25	0.5825	0.0005
109.3	0.6255	0.037
109.35	0.663	0.0675
109.4	0.705	0.098
109.45	0.7385	0.1205
109.5	0.772	0.145
109.55	0.795	0.1565
109.6	0.8125	0.163
109.65	0.823	0.16
109.7	0.831	0.1545
109.75	0.8225	0.1405
109.8	0.817	0.1255
109.85	0.801	0.1
109.9	0.777	0.075
109.95	0.7485	0.0415
110	0.7165	0.0095
110.05	0.676	-0.03
110.1	0.6375	-0.066
110.15	0.5915	-0.108
110.2	0.5495	-0.145
110.25	0.5065	-0.183
110.3	0.469	-0.2125
110.35	0.4295	-0.2415
110.4	0.3965	-0.2645
110.45	0.36	-0.2845
110.5	0.331	-0.2975
110.55	0.3135	-0.3115
110.6	0.3025	-0.3095
110.65	0.2975	-0.3055
110.7	0.3005	-0.294
110.75	0.3065	-0.281
110.8	0.3235	-0.255
110.85	0.3445	-0.2325
110.9	0.375	-0.1975
110.95	0.4055	-0.163
111	0.4425	-0.1255
111.05	0.481	-0.089
111.1	0.5265	-0.05
111.15	0.568	-0.0145
111.2	0.6125	0.0235
111.25	0.653	0.056
111.3	0.6905	0.09
111.35	0.727	0.1125
111.4	0.7635	0.1365
111.45	0.7865	0.1485
111.5	0.8095	0.16
111.55	0.82	0.157
111.6	0.829	0.1605
111.65	0.829	0.148
111.7	0.823	0.1335
111.75	0.8055	0.111
111.8	0.7875	0.087
111.85	0.7615	0.0535
111.9	0.734	0.023
111.95	0.696	-0.0175
112	0.656	-0.053
112.05	0.6115	-0.094
112.1	0.5695	-0.1305
112.15	0.5245	-0.1715
112.2	0.4845	-0.202
112.25	0.443	-0.2355
112.3	0.4085	-0.262
112.35	0.3725	-0.283
112.4	0.3465	-0.297
112.45	0.3235	-0.306
112.5	0.306	-0.3095
112.55	0.295	-0.31
112.6	0.2965	-0.2985
112.65	0.303	-0.285
112.7	0.3165	-0.263
112.75	0.334	-0.241
112.8	0.3605	-0.211
112.85	0.3915	-0.177
112.9	0.429	-0.1385
112.95	0.4655	-0.1055
113	0.5075	-0.0645
113.05	0.548	-0.0275
113.1	0.5945	0.012
113.15	0.636	0.044
113.2	0.6775	0.0765
113.25	0.7115	0.102
113.3	0.7455	0.128
113.35	0.774	0.1445
113.4	0.798	0.157
113.45	0.8145	0.161
113.5	0.8265	0.1595
113.55	0.828	0.149
113.6	0.8245	0.138
113.65	0.812	0.1215
113.7	0.7935	0.097
113.75	0.7685	0.067
113.8	0.743	0.0345
113.85	0.7075	-0.0035
113.9	0.671	-0.0375
113.95	0.6255	-0.078
114	0.5835	-0.1165
114.05	0.5375	-0.1565
114.1	0.498	-0.19
114.15	0.454	-0.222
114.2	0.417	-0.248
114.25	0.38	-0.274
114.3	0.3535	-0.289
114.35	0.329	-0.302
114.4	0.3135	-0.306
114.45	0.3035	-0.308
114.5	0.3	-0.3025
114.55	0.3005	-0.2885
114.6	0.3145	-0.269
114.65	0.3275	-0.2505
114.7	0.35	-0.2205
114.75	0.3785	-0.19
114.8	0.4135	-0.158
114.85	0.4515	-0.119
114.9	0.494	-0.0785
114.95	0.5335	-0.0395
115	0.58	-0.0005
115.05	0.622	0.0325
115.1	0.6635	0.0665
115.15	0.701	0.093
115.2	0.7395	0.1195
115.25	0.7695	0.1355
115.3	0.7955	0.1515
115.35	0.813	0.156
115.4	0.825	0.16
115.45	0.83	0.152
115.5	0.83	0.1385
115.55	0.8195	0.121
115.6	0.804	0.1075
115.65	0.779	0.074
115.7	0.755	0.045
115.75	0.721	0.009
115.8	0.683	-0.028
115.85	0.6395	-0.066
115.9	0.5995	-0.105
115.95	0.552	-0.1405
116	0.511	-0.1725
116.05	0.469	-0.208
116.1	0.432	-0.2365
116.15	0.397	-0.262
116.2	0.3655	-0.2835
116.25	0.338	-0.298
116.3	0.3185	-0.306
116.35	0.3025	-0.3095
116.4	0.3005	-0.302
116.45	0.3	-0.2925
116.5	0.3085	-0.2745
116.55	0.3205	-0.255
116.6	0.3415	-0.23
116.65	0.368	-0.202
116.7	0.404	-0.1635
116.75	0.4385	-0.129
116.8	0.478	-0.09
116.85	0.519	-0.054
116.9	0.5635	-0.014
116.95	0.607	0.019
117	0.6495	0.0545
117.05	0.686	0.082
117.1	0.7225	0.1115
117.15	0.754	0.13
117.2	0.7865	0.1475
117.25	0.8045	0.156
117.3	0.819	0.16
117.35	0.8275	0.1555
117.4	0.83	0.149
117.45	0.821	0.132
117.5	0.809	0.1135
117.55	0.789	0.0855
117.6	0.7645	0.059
117.65	0.7325	0.024
117.7	0.6975	-0.014
117.75	0.6565	-0.0485
117.8	0.616	-0.0885
117.85	0.5715	-0.1275
117.9	0.53	-0.1615
117.95	0.486	-0.1965
118	0.4485	-0.2235
118.05	0.408	-0.252
118.1	0.374	-0.2745
118.15	0.348	-0.2935
118.2	0.3285	-0.303
118.25	0.311	-0.309
118.3	0.303	-0.303
118.35	0.299	-0.296
118.4	0.304	-0.2805
118.45	0.315	-0.266
118.5	0.3345	-0.2395
118.55	0.3585	-0.2115
118.6	0.3895	-0.176
118.65	0.422	-0.1415
118.7	0.4615	-0.103
118.75	0.5025	-0.0645
118.8	0.5465	-0.0275
118.85	0.588	0.0075
118.9	0.6305	0.043
118.95	0.6725	0.0735
119	0.712	0.1005
119.05	0.746	0.1215
119.1	0.775	0.142
119.15	0.7975	0.1535
119.2	0.8135	0.159
119.25	0.8225	0.1575
119.3	0.8275	0.1525
119.35	0.825	0.138
119.4	0.8135	0.1165
119.45	0.7975	0.0955
119.5	0.7765	0.068
119.55	0.744	0.0345
119.6	0.7105	0.0005
119.65	0.6705	-0.038
119.7	0.631	-0.0755
119.75	0.587	-0.1135
119.8	0.5475	-0.15
119.85	0.502	-0.184
119.9	0.461	-0.2155
119.95	0.419	-0.248
120	0.385	-0.2675
120.05	0.3565	-0.2865
120.1	0.334	-0.296
120.15	0.3165	-0.304
120.2	0.3055	-0.305
120.25	0.2985	-0.301
120.3	0.301	-0.2885
120.35	0.312	-0.2725
120.4	0.3275	-0.2485
120.45	0.347	-0.2215
120.5	0.3745	-0.19
120.55	0.41	-0.1545
120.6	0.446	-0.1175
120.65	0.4855	-0.0795
120.7	0.5295	-0.042
120.75	0.5735	-0.0065
120.8	0.6165	0.03
120.85	0.658	0.0625
120.9	0.697	0.0905
120.95	0.732	0.112
121	0.7645	0.133
121.05	0.787	0.1465
121.1	0.8055	0.1565
121.15	0.821	0.157
121.2	0.829	0.153
121.25	0.8255	0.142
121.3	0.8185	0.124
121.35	0.8015	0.106
121.4	0.781	0.078
121.45	0.756	0.047
121.5	0.723	0.012
121.55	0.686	-0.025
121.6	0.6475	-0.0625
121.65	0.604	-0.099
121.7	0.562	-0.1375
121.75	0.5165	-0.173
121.8	0.4745	-0.2045
121.85	0.436	-0.237
121.9	0.3995	-0.2595
121.95	0.367	-0.279
122	0.3395	-0.2935
122.05	0.32	-0.3055
122.1	0.3045	-0.307
122.15	0.299	-0.3025
122.2	0.299	-0.292
122.25	0.305	-0.277
122.3	0.319	-0.255
122.35	0.335	-0.2285
122.4	0.3615	-0.199
122.45	0.3935	-0.168
122.5	0.428	-0.1315
122.55	0.467	-0.0935
122.6	0.51	-0.0555
122.65	0.5555	-0.0185
122.7	0.6	0.016
122.75	0.6425	0.0475
122.8	0.682	0.077
122.85	0.72	0.1035
122.9	0.7535	0.125
122.95	0.7825	0.143
123	0.8025	0.1535
123.05	0.819	0.16
123.1	0.829	0.1555
123.15	0.8315	0.1485
123.2	0.826	0.133
123.25	0.811	0.1125
123.3	0.789	0.086
123.35	0.764	0.058
123.4	0.7335	0.028
123.45	0.699	-0.008
123.5	0.659	-0.0435
123.55	0.619	-0.0825
123.6	0.5745	-0.121
123.65	0.532	-0.159
123.7	0.4905	-0.1905
123.75	0.451	-0.221
123.8	0.412	-0.2515
123.85	0.378	-0.2735
123.9	0.347	-0.29
123.95	0.325	-0.298
124	0.3105	-0.303
124.05	0.302	-0.3025
124.1	0.2965	-0.2965
124.15	0.303	-0.282
124.2	0.3115	-0.263
124.25	0.329	-0.2385
124.3	0.353	-0.21
124.35	0.3845	-0.1765
124.4	0.4165	-0.144
124.45	0.4555	-0.108
124.5	0.4965	-0.071
124.55	0.5415	-0.0325
124.6	0.5835	0.003
124.65	0.625	0.039
124.7	0.667	0.067
124.75	0.7055	0.098
124.8	0.739	0.1215
124.85	0.7705	0.136
124.9	0.794	0.1485
124.95	0.813	0.1565
125	0.823	0.157
125.05	0.8315	0.154
125.1	0.8275	0.1385
125.15	0.819	0.1225
125.2	0.799	0.0995
125.25	0.7755	0.0715
125.3	0.7455	0.0355
125.35	0.712	0.001
125.4	0.674	-0.036
125.45	0.6345	-0.072
125.5	0.5925	-0.112
125.55	0.5515	-0.1455
125.6	0.508	-0.184
125.65	0.4655	-0.213
125.7	0.425	-0.242
125.75	0.392	-0.2645
125.8	0.3565	-0.286
125.85	0.3335	-0.2995
125.9	0.314	-0.3055
125.95	0.3045	-0.3045
126	0.298	-0.299
126.05	0.3	-0.2885
126.1	0.308	-0.272
126.15	0.323	-0.2505
126.2	0.3445	-0.224
126.25	0.3725	-0.1915
126.3	0.406	-0.1585
126.35	0.4435	-0.1195
126.4	0.4825	-0.082
126.45	0.525	-0.0425
126.5	0.5695	-0.0075
126.55	0.6125	0.0265
126.6	0.652	0.0595
126.65	0.6925	0.0895
126.7	0.7275	0.1125
126.75	0.7625	0.132
126.8	0.787	0.144
126.85	0.808	0.1525
126.9	0.82	0.1545
126.95	0.8265	0.1525
127	0.8255	0.1415
127.05	0.819	0.127
127.1	0.804	0.1075
127.15	0.7845	0.079
127.2	0.7555	0.0475
127.25	0.727	0.0165
127.3	0.69	-0.02
127.35	0.654	-0.0585
127.4	0.61	-0.099
127.45	0.5655	-0.1355
127.5	0.523	-0.171
127.55	0.482	-0.202
127.6	0.44	-0.234
127.65	0.4025	-0.258
127.7	0.369	-0.282
127.75	0.3425	-0.293
127.8	0.3205	-0.3
127.85	0.3075	-0.3025
127.9	0.299	-0.3025
127.95	0.2995	-0.2915
128	0.3045	-0.2785
128.05	0.3175	-0.2575
128.1	0.3345	-0.2355
128.15	0.3615	-0.203
128.2	0.39	-0.173
128.25	0.4255	-0.1345
128.3	0.466	-0.0975
128.35	0.5085	-0.059
128.4	0.553	-0.0235
128.45	0.5965	0.0135
128.5	0.6375	0.0465
128.55	0.6815	0.078
128.6	0.718	0.1015
128.65	0.7515	0.1255
128.7	0.7795	0.139
128.75	0.8015	0.1515
128.8	0.815	0.1525
128.85	0.824	0.1525
128.9	0.825	0.1435
128.95	0.8225	0.13
129	0.81	0.112
129.05	0.7945	0.0885
129.1	0.7685	0.0585
129.15	0.7375	0.027
129.2	0.7035	-0.011
129.25	0.669	-0.0445
129.3	0.625	-0.084
129.35	0.581	-0.1185
129.4	0.536	-0.1555
129.45	0.495	-0.1885
129.5	0.454	-0.223
129.55	0.418	-0.247
129.6	0.3815	-0.273
129.65	0.3525	-0.286
129.7	0.3275	-0.298
129.75	0.3135	-0.301
129.8	0.3015	-0.303
129.85	0.2985	-0.295
129.9	0.3005	-0.282
129.95	0.3155	-0.2625
130	0.33	-0.2435
130.05	0.354	-0.2145
130.1	0.379	-0.183
130.15	0.412	-0.145
130.2	0.4495	-0.1115
130.25	0.4905	-0.071
130.3	0.533	-0.037
130.35	0.578	-0.0005
130.4	0.6205	0.0325
130.45	0.6625	0.065
130.5	0.7005	0.092
130.55	0.7395	0.1165
130.6	0.7685	0.1335
130.65	0.795	0.1475
130.7	0.8095	0.151
130.75	0.8245	0.1545
130.8	0.829	0.146
130.85	0.8275	0.1365
130.9	0.815	0.116
130.95	0.8005	0.0965
131	0.778	0.0655
131.05	0.75	0.0395
131.1	0.7175	0.002
131.15	0.6835	-0.0295
131.2	0.641	-0.0725
131.25	0.5995	-0.108
131.3	0.5545	-0.146
131.35	0.5115	-0.177
131.4	0.4655	-0.212
131.45	0.431	-0.2385
131.5	0.393	-0.261
131.55	0.363	-0.279
131.6	0.336	-0.2985
131.65	0.3185	-0.3035
131.7	0.3055	-0.3065
131.75	0.2995	-0.3005
131.8	0.3005	-0.29
131.85	0.3095	-0.273
131.9	0.3225	-0.2545
131.95	0.345	-0.225
132	0.3685	-0.1965
132.05	0.401	-0.1595
132.1	0.4385	-0.1255
132.15	0.4795	-0.084
132.2	0.5195	-0.049
132.25	0.564	-0.0095
132.3	0.608	0.022
132.35	0.65	0.0555
132.4	0.6875	0.08
132.45	0.725	0.107
132.5	0.7565	0.127
132.55	0.783	0.142
132.6	0.803	0.1495
132.65	0.817	0.1545
132.7	0.8245	0.1485
132.75	0.8265	0.1435
132.8	0.82	0.124
132.85	0.8085	0.104
132.9	0.7855	0.0765
132.95	0.7605	0.051
133	0.7275	0.0155
133.05	0.6935	-0.0165
133.1	0.6535	-0.0545
133.15	0.6115	-0.0905
133.2	0.5685	-0.131
133.25	0.526	-0.164
133.3	0.4825	-0.198
133.35	0.4405	-0.2285
133.4	0.402	-0.2565
133.45	0.3725	-0.2765
133.5	0.344	-0.2915
133.55	0.3245	-0.2965
133.6	0.31	-0.2995
133.65	0.3035	-0.2975
133.7	0.3	-0.2935
133.75	0.306	-0.276
133.8	0.3125	-0.2575
133.85	0.334	-0.2315
133.9	0.358	-0.204
133.95	0.389	-0.1715
134	0.424	-0.14
134.05	0.4615	-0.1005
134.1	0.502	-0.0655
134.15	0.548	-0.029
134.2	0.59	0.0085
134.25	0.631	0.042
134.3	0.6705	0.071
134.35	0.71	0.1
134.4	0.742	0.1195
134.45	0.771	0.139
134.5	0.795	0.1465
134.55	0.8155	0.1525
134.6	0.825	0.1515
134.65	0.8285	0.1445
134.7	0.824	0.128
134.75	0.815	0.1125
134.8	0.796	0.086
134.85	0.7725	0.0615
134.9	0.742	0.026
134.95	0.708	-0.003
135	0.669	-0.042
135.05	0.6295	-0.0775
135.1	0.5845	-0.1175
135.15	0.543	-0.154
135.2	0.5005	-0.188
135.25	0.4625	-0.2155
135.3	0.423	-0.2455
135.35	0.3925	-0.266
135.4	0.3605	-0.2865
135.45	0.339	-0.2945
135.5	0.3175	-0.301
135.55	0.308	-0.3015
135.6	0.3035	-0.2975
135.65	0.306	-0.2805
135.7	0.313	-0.2645
135.75	0.3315	-0.237
135.8	0.3525	-0.2165
135.85	0.381	-0.1815
135.9	0.4135	-0.1505
135.95	0.4525	-0.116
136	0.491	-0.08
136.05	0.532	-0.04
136.1	0.575	-0.003
136.15	0.618	0.032
136.2	0.659	0.0585
136.25	0.7025	0.089
136.3	0.7355	0.113
136.35	0.7675	0.132
136.4	0.79	0.14
136.45	0.8095	0.152
136.5	0.822	0.1505
136.55	0.8285	0.1455
136.6	0.824	0.136
136.65	0.8165	0.1205
136.7	0.802	0.094
136.75	0.782	0.0685
136.8	0.7525	0.0385
136.85	0.7205	0.0035
136.9	0.682	-0.035
136.95	0.643	-0.065
137	0.6015	-0.1055
137.05	0.5615	-0.1375
137.1	0.515	-0.1705
137.15	0.4735	-0.207
137.2	0.4335	-0.2385
137.25	0.4	-0.261
137.3	0.3675	-0.2795
137.35	0.3425	-0.2905
137.4	0.3195	-0.299
137.45	0.307	-0.299
137.5	0.3015	-0.2965
137.55	0.302	-0.287
137.6	0.3065	-0.2715
137.65	0.321	-0.251
137.7	0.339	-0.224
137.75	0.3675	-0.195
137.8	0.3995	-0.164
137.85	0.438	-0.1255
137.9	0.4775	-0.092
137.95	0.5205	-0.054
138	0.561	-0.0195
138.05	0.6055	0.0165
138.1	0.646	0.0505
138.15	0.687	0.0775
138.2	0.7275	0.1035
138.25	0.7605	0.1245
138.3	0.786	0.1355
138.35	0.807	0.146
138.4	0.8215	0.148
138.45	0.8285	0.146
138.5	0.828	0.138
138.55	0.8245	0.1245
138.6	0.812	0.103
138.65	0.795	0.0775
138.7	0.77	0.047
138.75	0.7365	0.018
138.8	0.7005	-0.0145
138.85	0.661	-0.0525
138.9	0.6185	-0.0905
138.95	0.5765	-0.1245
139	0.531	-0.162
139.05	0.491	-0.1925
139.1	0.45	-0.2245
139.15	0.4105	-0.249
139.2	0.3765	-0.2705
139.25	0.3495	-0.2855
139.3	0.3265	-0.2935
139.35	0.312	-0.298
139.4	0.3005	-0.296
139.45	0.298	-0.2895
139.5	0.304	-0.279
139.55	0.318	-0.259
139.6	0.3355	-0.234
139.65	0.36	-0.206
139.7	0.388	-0.1745
139.75	0.424	-0.14
139.8	0.4605	-0.104
139.85	0.5015	-0.065
139.9	0.5445	-0.032
139.95	0.59	0.006
140	0.631	0.0405
140.05	0.672	0.071
140.1	0.7095	0.095
140.15	0.7445	0.1195
140.2	0.7715	0.1345
140.25	0.796	0.143
140.3	0.814	0.1475
140.35	0.8255	0.1475
140.4	0.8285	0.144
140.45	0.8255	0.1325
140.5	0.815	0.1145
140.55	0.7985	0.088
140.6	0.776	0.06
140.65	0.748	0.0285
140.7	0.7125	-0.003
140.75	0.6765	-0.0385
140.8	0.6365	-0.074
140.85	0.5965	-0.1125
140.9	0.5535	-0.152
140.95	0.512	-0.1855
141	0.4685	-0.215
141.05	0.429	-0.242
141.1	0.393	-0.2655
141.15	0.3625	-0.2845
141.2	0.3385	-0.296
141.25	0.3175	-0.3
141.3	0.307	-0.2985
141.35	0.3025	-0.2935
141.4	0.3035	-0.2815
141.45	0.311	-0.263
141.5	0.325	-0.2405
141.55	0.347	-0.2145
141.6	0.3735	-0.184
141.65	0.4075	-0.1515
141.7	0.446	-0.1145
141.75	0.4845	-0.0785
141.8	0.528	-0.041
141.85	0.566	-0.006
141.9	0.611	0.028
141.95	0.6545	0.057
142	0.6945	0.0845
142.05	0.7285	0.1095
142.1	0.7605	0.126
142.15	0.789	0.138
142.2	0.808	0.146
142.25	0.8225	0.1495
142.3	0.8305	0.1445
142.35	0.829	0.133
142.4	0.8225	0.118
142.45	0.8095	0.1005
142.5	0.7885	0.0715
142.55	0.7595	0.041
142.6	0.7265	0.0065
142.65	0.6885	-0.0305
142.7	0.65	-0.0645
142.75	0.606	-0.101
142.8	0.5645	-0.1355
142.85	0.52	-0.1715
142.9	0.4775	-0.2015
142.95	0.4375	-0.23
143	0.403	-0.2555
143.05	0.369	-0.274
143.1	0.343	-0.2885
143.15	0.32	-0.2985
143.2	0.307	-0.2995
143.25	0.2995	-0.298
143.3	0.303	-0.2855
143.35	0.308	-0.274
143.4	0.3225	-0.252
143.45	0.339	-0.2265
143.5	0.367	-0.195
143.55	0.397	-0.1655
143.6	0.4325	-0.131
143.65	0.4735	-0.0945
143.7	0.5175	-0.056
143.75	0.5565	-0.018
143.8	0.5975	0.0175
143.85	0.6375	0.045
143.9	0.6825	0.0745
143.95	0.717	0.0975
144	0.752	0.1195
144.05	0.7795	0.138
144.1	0.803	0.149
144.15	0.816	0.149
144.2	0.828	0.1465
144.25	0.8275	0.1365
144.3	0.824	0.125
144.35	0.812	0.1015
144.4	0.794	0.0795
144.45	0.768	0.0505
144.5	0.7385	0.019
144.55	0.699	-0.0145
144.6	0.6615	-0.051
144.65	0.621	-0.0885
144.7	0.579	-0.1235
144.75	0.5365	-0.157
144.8	0.4945	-0.1915
144.85	0.453	-0.225
144.9	0.416	-0.251
144.95	0.382	-0.2715
145	0.35	-0.285
145.05	0.328	-0.2925
145.1	0.3115	-0.297
145.15	0.303	-0.298
145.2	0.3015	-0.288
145.25	0.3045	-0.276
145.3	0.315	-0.256
145.35	0.331	-0.2345
145.4	0.3545	-0.2045
145.45	0.381	-0.175
145.5	0.415	-0.1405
145.55	0.453	-0.108
145.6	0.4965	-0.0705
145.65	0.54	-0.033
145.7	0.582	0.0015
145.75	0.624	0.033
145.8	0.666	0.0655
145.85	0.7045	0.092
145.9	0.738	0.1135
145.95	0.7685	0.128
146	0.7945	0.1415
146.05	0.809	0.148
146.1	0.824	0.1475
146.15	0.828	0.1365
146.2	0.828	0.1285
146.25	0.817	0.108
146.3	0.803	0.0885
146.35	0.7795	0.0585
146.4	0.7535	0.0285
146.45	0.718	-0.007
146.5	0.679	-0.0385
146.55	0.636	-0.0755
146.6	0.5955	-0.109
146.65	0.5495	-0.147
146.7	0.51	-0.179
146.75	0.4655	-0.2095
146.8	0.428	-0.2365
146.85	0.3925	-0.261
146.9	0.3635	-0.2765
146.95	0.339	-0.288
147	0.32	-0.296
147.05	0.3045	-0.299
147.1	0.2965	-0.2915
147.15	0.297	-0.283
147.2	0.3055	-0.262
147.25	0.3235	-0.2435
147.3	0.3455	-0.2145
147.35	0.3725	-0.1865
147.4	0.406	-0.152
147.45	0.439	-0.1175
147.5	0.4795	-0.0795
147.55	0.5205	-0.046
147.6	0.5675	-0.01
147.65	0.6125	0.0235
147.7	0.6535	0.0545
147.75	0.69	0.0815
147.8	0.726	0.1085
147.85	0.76	0.123
147.9	0.785	0.1395
147.95	0.8025	0.146
148	0.8185	0.15
148.05	0.8245	0.1435
148.1	0.8255	0.1335
148.15	0.817	0.1185
148.2	0.8035	0.098
148.25	0.7815	0.0725
148.3	0.7595	0.0465
148.35	0.7265	0.0095
148.4	0.6915	-0.024
148.45	0.6525	-0.062
148.5	0.6115	-0.096
148.55	0.567	-0.136
148.6	0.5265	-0.1685
148.65	0.482	-0.202
148.7	0.442	-0.2275
148.75	0.404	-0.254
148.8	0.371	-0.2705
148.85	0.3425	-0.285
148.9	0.323	-0.2925
148.95	0.306	-0.2985
149	0.2995	-0.29
149.05	0.2965	-0.284
149.1	0.3045	-0.2715
149.15	0.3155	-0.253
149.2	0.3375	-0.2275
149.25	0.3585	-0.2015
149.3	0.39	-0.166
149.35	0.425	-0.13
149.4	0.465	-0.0935
149.45	0.506	-0.061
149.5	0.551	-0.0235
149.55	0.5905	0.0085
149.6	0.6365	0.043
149.65	0.679	0.0725
149.7	0.718	0.099
149.75	0.748	0.118
149.8	0.7755	0.1355
149.85	0.7945	0.142
149.9	0.814	0.148
149.95	0.823	0.1465
150	0.825	0.1385
150.05	0.819	0.124
150.1	0.8085	0.1085
150.15	0.788	0.082
150.2	0.767	0.054
150.25	0.737	0.0215
150.3	0.709	-0.0115
150.35	0.6685	-0.048
150.4	0.6295	-0.0845
150.45	0.584	-0.121
150.5	0.545	-0.155
150.55	0.4975	-0.1895
150.6	0.4575	-0.2165
150.65	0.4175	-0.2425
150.7	0.3855	-0.263
150.75	0.354	-0.28
150.8	0.3295	-0.2875
150.85	0.311	-0.298
150.9	0.303	-0.295
150.95	0.298	-0.2875
151	0.3045	-0.2715
151.05	0.312	-0.2545
151.1	0.3305	-0.232
151.15	0.3525	-0.209
151.2	0.3825	-0.178
151.25	0.4155	-0.1455
151.3	0.4535	-0.1075
151.35	0.491	-0.074
151.4	0.535	-0.0345
151.45	0.5775	-0.0005
151.5	0.6245	0.0345
151.55	0.6615	0.063
151.6	0.7015	0.091
151.65	0.734	0.112
151.7	0.7695	0.131
151.75	0.791	0.1405
151.8	0.8135	0.1455
151.85	0.8245	0.1425
151.9	0.8285	0.143
151.95	0.8245	0.1275
152	0.818	0.1135
152.05	0.7995	0.0875
152.1	0.779	0.063
152.15	0.7515	0.031
152.2	0.7185	-0.0005
152.25	0.6785	-0.035
152.3	0.64	-0.0705
152.35	0.595	-0.1065
152.4	0.5565	-0.1415
152.45	0.5115	-0.1765
152.5	0.4695	-0.2075
152.55	0.4275	-0.2355
152.6	0.3935	-0.256
152.65	0.362	-0.2755
152.7	0.3405	-0.29
152.75	0.3195	-0.299
152.8	0.309	-0.2955
152.85	0.3005	-0.292
152.9	0.302	-0.2795
152.95	0.307	-0.2645
153	0.3225	-0.243
153.05	0.343	-0.218
153.1	0.371	-0.1875
153.15	0.403	-0.1535
153.2	0.44	-0.1205
153.25	0.479	-0.0895
153.3	0.522	-0.0485
153.35	0.5645	-0.013
153.4	0.6075	0.0215
153.45	0.6475	0.049
153.5	0.688	0.0795
153.55	0.7215	0.102
153.6	0.755	0.1235
153.65	0.782	0.1375
153.7	0.804	0.1435
153.75	0.817	0.1425
153.8	0.8245	0.143
153.85	0.825	0.1325
153.9	0.8225	0.119
153.95	0.8075	0.096
154	0.7875	0.073
154.05	0.759	0.041
154.1	0.7325	0.012
154.15	0.695	-0.0245
154.2	0.6575	-0.057
154.25	0.6155	-0.0935
154.3	0.5725	-0.127
154.35	0.5275	-0.163
154.4	0.4865	-0.195
154.45	0.446	-0.2255
154.5	0.4085	-0.2485
154.55	0.3725	-0.271
154.6	0.346	-0.285
154.65	0.323	-0.293
154.7	0.308	-0.2955
154.75	0.299	-0.293
154.8	0.2995	-0.283
154.85	0.3035	-0.2715
154.9	0.319	-0.248
154.95	0.3355	-0.229
155	0.3605	-0.1985
155.05	0.39	-0.17
155.1	0.422	-0.134
155.15	0.46	-0.1005
155.2	0.5015	-0.0615
155.25	0.542	-0.028
155.3	0.586	0.0085
155.35	0.629	0.0385
155.4	0.671	0.07
155.45	0.7085	0.0935
155.5	0.7435	0.116
155.55	0.77	0.1305
155.6	0.794	0.145
155.65	0.81	0.1435
155.7	0.823	0.1445
155.75	0.8285	0.134
155.8	0.8255	0.125
155.85	0.8125	0.106
155.9	0.796	0.0835
155.95	0.772	0.054
156	0.745	0.0245
156.05	0.708	-0.0135
156.1	0.673	-0.0445
156.15	0.63	-0.083
156.2	0.5875	-0.1195
156.25	0.54	-0.1535
156.3	0.5	-0.1845
156.35	0.4575	-0.2165
156.4	0.421	-0.2395
156.45	0.388	-0.261
156.5	0.359	-0.277
156.55	0.335	-0.2915
156.6	0.315	-0.2935
156.65	0.3045	-0.297
156.7	0.2985	-0.287
156.75	0.299	-0.279
156.8	0.311	-0.2575
156.85	0.326	-0.2355
156.9	0.3495	-0.2065
156.95	0.375	-0.181
157	0.4085	-0.1455
157.05	0.443	-0.113
157.1	0.4845	-0.075
157.15	0.526	-0.0385
157.2	0.5735	-0.0025
157.25	0.617	0.0265
157.3	0.659	0.059
157.35	0.6985	0.083
157.4	0.735	0.108
157.45	0.7635	0.1235
157.5	0.792	0.139
157.55	0.809	0.146
157.6	0.8225	0.145
157.65	0.825	0.14
157.7	0.8255	0.13
157.75	0.8165	0.111
157.8	0.804	0.0915
157.85	0.7815	0.064
157.9	0.754	0.0355
157.95	0.7215	0.0005
158	0.6855	-0.0345
158.05	0.6465	-0.0715
158.1	0.6045	-0.104
158.15	0.5585	-0.14
158.2	0.5155	-0.173
158.25	0.472	-0.205
158.3	0.4375	-0.2305
158.35	0.398	-0.255
158.4	0.368	-0.272
158.45	0.3395	-0.2865
158.5	0.3185	-0.2925
158.55	0.305	-0.297
158.6	0.302	-0.2895
158.65	0.2985	-0.2805
158.7	0.307	-0.265
158.75	0.3175	-0.244
158.8	0.339	-0.217
158.85	0.365	-0.188
158.9	0.398	-0.157
158.95	0.432	-0.123
159	0.4725	-0.0895
159.05	0.513	-0.0545
159.1	0.5595	-0.016
159.15	0.5985	0.0165
159.2	0.6425	0.0505
159.25	0.68	0.076
159.3	0.719	0.1025
159.35	0.7495	0.116
159.4	0.7795	0.1325
159.45	0.799	0.141
159.5	0.8185	0.1455
159.55	0.8255	0.1385
159.6	0.8295	0.1315
159.65	0.8215	0.1155
159.7	0.8095	0.0975
159.75	0.7905	0.0715
159.8	0.767	0.046
159.85	0.7365	0.015
159.9	0.703	-0.0195
159.95	0.6625	-0.0575
160	0.6235	-0.0895
160.05	0.5785	-0.127
160.1	0.537	-0.1575
160.15	0.4935	-0.189
160.2	0.4525	-0.2185
160.25	0.4135	-0.242
160.3	0.38	-0.2605
160.35	0.351	-0.2795
160.4	0.3305	-0.289
160.45	0.313	-0.2915
160.5	0.303	-0.2885
160.55	0.2995	-0.2825
160.6	0.3045	-0.268
160.65	0.317	-0.2495
160.7	0.335	-0.2245
160.75	0.3575	-0.2005
160.8	0.387	-0.1665
160.85	0.4205	-0.134
160.9	0.4605	-0.0995
160.95	0.502	-0.065
161	0.5405	-0.0285
161.05	0.582	0.0045
161.1	0.6255	0.038
161.15	0.6655	0.0675
161.2	0.706	0.092
161.25	0.742	0.1095
161.3	0.7735	0.129
161.35	0.7955	0.135
161.4	0.8135	0.1435
161.45	0.824	0.1385
161.5	0.8275	0.133
161.55	0.823	0.12
161.6	0.814	0.105
161.65	0.795	0.0795
161.7	0.773	0.054
161.75	0.744	0.028
161.8	0.7105	-0.006
161.85	0.674	-0.046
161.9	0.635	-0.0785
161.95	0.591	-0.113
162	0.549	-0.1515
162.05	0.5045	-0.1835
162.1	0.4625	-0.2085
162.15	0.423	-0.238
162.2	0.3915	-0.2555
162.25	0.3585	-0.274
162.3	0.3355	-0.2835
162.35	0.315	-0.2905
162.4	0.3025	-0.2885
162.45	0.2965	-0.2845
162.5	0.3005	-0.2745
162.55	0.3065	-0.256
162.6	0.324	-0.2315
162.65	0.343	-0.2075
162.7	0.3715	-0.179
162.75	0.4055	-0.147
162.8	0.4425	-0.111
162.85	0.4815	-0.0785
162.9	0.528	-0.0405
162.95	0.568	-0.0055
163	0.61	0.028
163.05	0.652	0.055
163.1	0.694	0.0825
163.15	0.73	0.1045
163.2	0.764	0.1235
163.25	0.789	0.1375
163.3	0.807	0.142
163.35	0.821	0.1415
163.4	0.8295	0.1395
163.45	0.8275	0.1275
163.5	0.8205	0.114
163.55	0.8075	0.0905
163.6	0.7845	0.065
163.65	0.7565	0.0375
163.7	0.7285	0.0055
163.75	0.6915	-0.0295
163.8	0.6535	-0.0645
163.85	0.61	-0.101
163.9	0.565	-0.1345
163.95	0.52	-0.1695
164	0.4765	-0.2
164.05	0.437	-0.229
164.1	0.401	-0.249
164.15	0.37	-0.2695
164.2	0.3435	-0.283
164.25	0.323	-0.2895
164.3	0.3095	-0.291
164.35	0.3015	-0.2865
164.4	0.2975	-0.2785
164.45	0.3025	-0.264
164.5	0.319	-0.243
164.55	0.337	-0.2205
164.6	0.3625	-0.191
164.65	0.3935	-0.1595
164.7	0.4295	-0.1255
164.75	0.4675	-0.0915
164.8	0.51	-0.0525
164.85	0.555	-0.018
164.9	0.597	0.015
164.95	0.6385	0.0475
165	0.6815	0.0775
165.05	0.719	0.0985
165.1	0.7535	0.116
165.15	0.78	0.132
165.2	0.8005	0.142
165.25	0.8155	0.142
165.3	0.825	0.1415
165.35	0.8255	0.1325
165.4	0.821	0.1175
165.45	0.8085	0.093
165.5	0.7925	0.073
165.55	0.7665	0.042
165.6	0.738	0.015
165.65	0.7035	-0.018
165.7	0.6675	-0.052
165.75	0.6255	-0.088
165.8	0.583	-0.1225
165.85	0.54	-0.157
165.9	0.496	-0.1865
165.95	0.4535	-0.2175
166	0.4165	-0.2435
166.05	0.3815	-0.2645
166.1	0.354	-0.279
166.15	0.33	-0.2855
166.2	0.312	-0.287
166.25	0.3	-0.2865
166.3	0.2985	-0.279
166.35	0.301	-0.2675
166.4	0.3125	-0.2495
166.45	0.328	-0.2275
166.5	0.3525	-0.201
166.55	0.381	-0.171
166.6	0.415	-0.1355
166.65	0.4555	-0.101
166.7	0.499	-0.064
166.75	0.537	-0.032
166.8	0.58	0
166.85	0.621	0.034
166.9	0.663	0.0615
166.95	0.7045	0.0855
167	0.741	0.108
167.05	0.7685	0.1225
167.1	0.7915	0.136
167.15	0.811	0.138
167.2	0.8225	0.1385
167.25	0.8285	0.131
167.3	0.8255	0.1185
167.35	0.817	0.0995
167.4	0.8015	0.078
167.45	0.7785	0.05
167.5	0.751	0.022
167.55	0.7185	-0.0085
167.6	0.6825	-0.0395
167.65	0.642	-0.0785
167.7	0.6	-0.112
167.75	0.5545	-0.147
167.8	0.512	-0.179
167.85	0.4705	-0.2075
167.9	0.429	-0.2345
167.95	0.393	-0.2555
168	0.3635	-0.2735
168.05	0.3405	-0.2835
168.1	0.3175	-0.2885
168.15	0.3055	-0.292
168.2	0.299	-0.284
168.25	0.301	-0.272
168.3	0.3095	-0.256
168.35	0.324	-0.2365
168.4	0.3455	-0.209
168.45	0.3695	-0.181
168.5	0.401	-0.148
168.55	0.438	-0.114
168.6	0.4805	-0.078
168.65	0.523	-0.0425
168.7	0.5665	-0.009
168.75	0.608	0.0255
168.8	0.649	0.053
168.85	0.6875	0.0765
168.9	0.7235	0.098
168.95	0.7545	0.115
169	0.784	0.1295
169.05	0.807	0.138
169.1	0.822	0.1405
169.15	0.8295	0.1365
169.2	0.828	0.1275
169.25	0.8225	0.1105
169.3	0.808	0.092
169.35	0.7875	0.0665
169.4	0.7615	0.036
169.45	0.729	0.0035
169.5	0.696	-0.028
169.55	0.655	-0.066
169.6	0.6145	-0.0975
169.65	0.571	-0.136
169.7	0.5255	-0.171
169.75	0.4845	-0.1995
169.8	0.4455	-0.225
169.85	0.408	-0.2475
169.9	0.3745	-0.263
169.95	0.346	-0.2755
170	0.3245	-0.2825
170.05	0.3105	-0.2875
170.1	0.301	-0.289
170.15	0.298	-0.279
170.2	0.3035	-0.2635
170.25	0.317	-0.2425
170.3	0.3355	-0.2195
170.35	0.3605	-0.1905
170.4	0.389	-0.1595
170.45	0.4235	-0.1255
170.5	0.463	-0.0905
170.55	0.5075	-0.0555
170.6	0.551	-0.0195
170.65	0.594	0.012
170.7	0.633	0.042
170.75	0.672	0.0685
170.8	0.71	0.094
170.85	0.745	0.111
170.9	0.7725	0.1275
170.95	0.7955	0.1385
171	0.813	0.1385
171.05	0.8235	0.1345
171.1	0.8255	0.129
171.15	0.822	0.1155
171.2	0.8105	0.095
171.25	0.7935	0.071
171.3	0.768	0.0445
171.35	0.7385	0.0165
171.4	0.7035	-0.0145
171.45	0.6665	-0.051
171.5	0.626	-0.0865
171.55	0.588	-0.1215
171.6	0.5435	-0.1565
171.65	0.499	-0.189
171.7	0.459	-0.214
171.75	0.42	-0.236
171.8	0.387	-0.2555
171.85	0.357	-0.2695
171.9	0.3335	-0.282
171.95	0.317	-0.287
172	0.3045	-0.287
172.05	0.302	-0.28
172.1	0.3045	-0.268
172.15	0.314	-0.2525
172.2	0.3285	-0.2315
172.25	0.352	-0.2035
172.3	0.379	-0.175
172.35	0.412	-0.141
172.4	0.4495	-0.107
172.45	0.4915	-0.0715
172.5	0.5345	-0.036
172.55	0.5775	-0.002
172.6	0.6185	0.029
172.65	0.662	0.06
172.7	0.6975	0.086
172.75	0.7365	0.106
172.8	0.7655	0.1205
172.85	0.79	0.13
172.9	0.808	0.138
172.95	0.822	0.1385
173	0.828	0.131
173.05	0.8265	0.119
173.1	0.817	0.1025
173.15	0.803	0.082
173.2	0.7805	0.058
173.25	0.7525	0.0315
173.3	0.718	-0.003
173.35	0.684	-0.035
173.4	0.645	-0.0735
173.45	0.6045	-0.109
173.5	0.561	-0.143
173.55	0.519	-0.1735
173.6	0.475	-0.2025
173.65	0.4385	-0.2275
173.7	0.399	-0.2495
173.75	0.368	-0.267
173.8	0.3375	-0.2795
173.85	0.319	-0.283
173.9	0.306	-0.2885
173.95	0.3	-0.284
174	0.2995	-0.274
174.05	0.307	-0.2545
174.1	0.32	-0.236
174.15	0.3445	-0.208
174.2	0.371	-0.181
174.25	0.404	-0.1495
174.3	0.434	-0.1195
174.35	0.4745	-0.0845
174.4	0.517	-0.0495
174.45	0.563	-0.014
174.5	0.6035	0.0195
174.55	0.649	0.0495
174.6	0.6875	0.0745
174.65	0.7245	0.096
174.7	0.753	0.1155
174.75	0.78	0.1285
174.8	0.801	0.1375
174.85	0.818	0.14
174.9	0.8225	0.134
174.95	0.8265	0.126
175	0.818	0.11
175.05	0.808	0.0905
175.1	0.787	0.065
175.15	0.7635	0.036
175.2	0.731	0.006
175.25	0.701	-0.024
175.3	0.659	-0.0595
175.35	0.6175	-0.0935
175.4	0.5745	-0.13
175.45	0.5305	-0.162
175.5	0.489	-0.1955
175.55	0.4485	-0.222
175.6	0.41	-0.245
175.65	0.3775	-0.2645
175.7	0.3495	-0.2775
175.75	0.327	-0.2815
175.8	0.31	-0.2855
175.85	0.3015	-0.283
175.9	0.297	-0.277
175.95	0.3055	-0.262
176	0.316	-0.244
176.05	0.337	-0.218
176.1	0.3605	-0.19
176.15	0.39	-0.161
176.2	0.423	-0.1315
176.25	0.461	-0.0965
176.3	0.5035	-0.062
176.35	0.5455	-0.025
176.4	0.5885	0.0085
176.45	0.6325	0.038
176.5	0.6705	0.065
176.55	0.713	0.09
176.6	0.7445	0.1095
176.65	0.774	0.1265
176.7	0.7965	0.1325
176.75	0.813	0.137
176.8	0.8205	0.136
176.85	0.8255	0.1295
176.9	0.823	0.1165
176.95	0.8125	0.0975
177	0.7955	0.072
177.05	0.7705	0.048
177.1	0.743	0.014
177.15	0.712	-0.0165
177.2	0.6725	-0.049
177.25	0.6295	-0.0835
177.3	0.5875	-0.1195
177.35	0.5425	-0.151
177.4	0.5	-0.183
177.45	0.462	-0.21
177.5	0.4235	-0.233
177.55	0.3905	-0.2525
177.6	0.3595	-0.268
177.65	0.335	-0.28
177.7	0.316	-0.289
177.75	0.304	-0.285
177.8	0.3005	-0.2785
177.85	0.3065	-0.267
177.9	0.315	-0.2475
177.95	0.33	-0.2245
178	0.3515	-0.201
178.05	0.3805	-0.17
178.1	0.4125	-0.143
178.15	0.4485	-0.107
178.2	0.487	-0.0735
178.25	0.531	-0.0385
178.3	0.575	-0.0065
178.35	0.618	0.024
178.4	0.6555	0.053
178.45	0.6985	0.0835
178.5	0.7325	0.1015
178.55	0.764	0.1205
178.6	0.7885	0.131
178.65	0.811	0.1385
178.7	0.8235	0.136
178.75	0.8315	0.134
178.8	0.826	0.118
178.85	0.82	0.102
178.9	0.8045	0.0805
178.95	0.786	0.056
179	0.757	0.026
179.05	0.725	-0.002
179.1	0.6875	-0.0365
179.15	0.6495	-0.0685
179.2	0.6045	-0.104
179.25	0.5635	-0.138
179.3	0.521	-0.1735
179.35	0.4795	-0.198
179.4	0.438	-0.2255
179.45	0.4035	-0.246
179.5	0.372	-0.2665
179.55	0.3495	-0.2765
179.6	0.329	-0.2845
179.65	0.3125	-0.2845
179.7	0.3	-0.2815
179.75	0.3025	-0.274
179.8	0.3085	-0.2615
179.85	0.32	-0.2365
179.9	0.339	-0.2115
179.95	0.368	-0.1845
180	0.397	-0.157
180.05	0.433	-0.122
180.1	0.47	-0.0885
180.15	0.511	-0.0505
180.2	0.5545	-0.018
180.25	0.6005	0.0175
180.3	0.6395	0.0475
180.35	0.6805	0.077
180.4	0.7175	0.0955
180.45	0.7535	0.1175
180.5	0.78	0.1265
180.55	0.801	0.134
180.6	0.8145	0.1355
180.65	0.8245	0.1335
180.7	0.8285	0.124
180.75	0.8255	0.1105
180.8	0.811	0.088
180.85	0.7905	0.0665
180.9	0.7625	0.036
180.95	0.734	0.008
181	0.6975	-0.0245
181.05	0.659	-0.0535
181.1	0.618	-0.091
181.15	0.58	-0.1255
181.2	0.5355	-0.16
181.25	0.4945	-0.1885
181.3	0.452	-0.218
181.35	0.416	-0.238
181.4	0.382	-0.2605
181.45	0.354	-0.271
181.5	0.3295	-0.286
181.55	0.3145	-0.284
181.6	0.3015	-0.2815
181.65	0.3005	-0.271
181.7	0.3045	-0.261
181.75	0.3175	-0.244
181.8	0.3345	-0.2225
181.85	0.3585	-0.195
181.9	0.3855	-0.1665
181.95	0.42	-0.132
182	0.457	-0.1
182.05	0.497	-0.0615
182.1	0.5405	-0.0275
182.15	0.5865	0.003
182.2	0.6265	0.0315
182.25	0.668	0.0645
182.3	0.7035	0.087
182.35	0.74	0.1095
182.4	0.7685	0.1185
182.45	0.7925	0.133
182.5	0.8095	0.135
182.55	0.8225	0.137
182.6	0.8275	0.125
182.65	0.8255	0.1165
182.7	0.8155	0.096
182.75	0.799	0.077
182.8	0.775	0.05
182.85	0.7465	0.0215
182.9	0.713	-0.0125
182.95	0.678	-0.047
183	0.636	-0.083
183.05	0.5945	-0.1135
183.1	0.551	-0.1455
183.15	0.5085	-0.1755
183.2	0.465	-0.2055
183.25	0.428	-0.227
183.3	0.3915	-0.2515
183.35	0.363	-0.268
183.4	0.337	-0.283
183.45	0.321	-0.2845
183.5	0.3085	-0.285
183.55	0.3045	-0.277
183.6	0.301	-0.267
183.65	0.3125	-0.25
183.7	0.326	-0.231
183.75	0.348	-0.203
183.8	0.3745	-0.1765
183.85	0.4055	-0.141
183.9	0.4405	-0.1095
183.95	0.48	-0.0745
184	0.5195	-0.041
184.05	0.5645	-0.0065
184.1	0.6075	0.022
184.15	0.655	0.055
184.2	0.692	0.077
184.25	0.7315	0.098
184.3	0.762	0.113
184.35	0.789	0.1285
184.4	0.8055	0.133
184.45	0.8225	0.137
184.5	0.8295	0.1305
184.55	0.833	0.123
184.6	0.824	0.1045
184.65	0.808	0.089
184.7	0.7855	0.0605
184.75	0.7615	0.034
184.8	0.7275	-0.001
184.85	0.6925	-0.031
184.9	0.6505	-0.0675
184.95	0.6095	-0.1
185	0.566	-0.1345
185.05	0.524	-0.1655
185.1	0.4805	-0.1985
185.15	0.441	-0.222
185.2	0.402	-0.244
185.25	0.3725	-0.257
185.3	0.343	-0.275
185.35	0.3265	-0.2805
185.4	0.31	-0.2865
185.45	0.302	-0.2795
185.5	0.2975	-0.272
185.55	0.3075	-0.255
185.6	0.321	-0.2385
185.65	0.3435	-0.2115
185.7	0.364	-0.187
185.75	0.3955	-0.1545
185.8	0.429	-0.122
185.85	0.4685	-0.0875
185.9	0.5085	-0.056
185.95	0.552	-0.02
186	0.594	0.0105
186.05	0.639	0.043
186.1	0.6775	0.07
186.15	0.7165	0.095
186.2	0.747	0.1105
186.25	0.778	0.126
186.3	0.8015	0.1305
186.35	0.82	0.1355
186.4	0.827	0.128
186.45	0.83	0.1225
186.5	0.824	0.1105
186.55	0.814	0.095
186.6	0.794	0.067
186.65	0.772	0.0415
186.7	0.7405	0.0105
186.75	0.7085	-0.021
186.8	0.669	-0.0595
186.85	0.629	-0.09
186.9	0.5825	-0.1235
186.95	0.5415	-0.1545
187	0.4965	-0.1845
187.05	0.4605	-0.2105
187.1	0.4185	-0.236
187.15	0.385	-0.2535
187.2	0.3565	-0.2715
187.25	0.3325	-0.2775
187.3	0.315	-0.2825
187.35	0.306	-0.2805
187.4	0.299	-0.277
187.45	0.3045	-0.262
187.5	0.314	-0.2455
187.55	0.3315	-0.2205
187.6	0.353	-0.2005
187.65	0.3825	-0.1655
187.7	0.4135	-0.135
187.75	0.452	-0.101
187.8	0.4935	-0.0685
187.85	0.5345	-0.032
187.9	0.575	-0.0005
187.95	0.6195	0.0285
188	0.659	0.055
188.05	0.6995	0.0825
188.1	0.734	0.1005
188.15	0.7655	0.12
188.2	0.79	0.1275
188.25	0.8115	0.1345
188.3	0.821	0.1305
188.35	0.8295	0.124
188.4	0.8255	0.1125
188.45	0.817	0.097
188.5	0.8005	0.0735
188.55	0.78	0.0515
188.6	0.752	0.021
188.65	0.7225	-0.008
188.7	0.6825	-0.0425
188.75	0.6455	-0.073
188.8	0.602	-0.1095
188.85	0.5585	-0.14
188.9	0.5155	-0.1735
188.95	0.475	-0.201
189	0.4345	-0.2295
189.05	0.3985	-0.2485
189.1	0.3645	-0.271
189.15	0.3415	-0.2785
189.2	0.3225	-0.2835
189.25	0.3095	-0.2815
189.3	0.3005	-0.277
189.35	0.301	-0.2635
189.4	0.306	-0.2485
189.45	0.3235	-0.228
189.5	0.3425	-0.203
189.55	0.3695	-0.174
189.6	0.3995	-0.147
189.65	0.4395	-0.113
189.7	0.48	-0.081
189.75	0.5215	-0.0465
189.8	0.563	-0.014
189.85	0.6055	0.0205
189.9	0.6465	0.048
189.95	0.6865	0.078
190	0.72	0.0975
190.05	0.7525	0.1145
190.1	0.7795	0.1235
190.15	0.806	0.13
190.2	0.819	0.1325
190.25	0.8275	0.133
190.3	0.8255	0.121
190.35	0.823	0.107
190.4	0.809	0.0815
190.45	0.7875	0.06
190.5	0.7595	0.032
190.55	0.73	0.006
190.6	0.695	-0.029
190.65	0.658	-0.062
190.7	0.612	-0.0975
190.75	0.5705	-0.1305
190.8	0.5265	-0.1635
190.85	0.488	-0.1895
190.9	0.4455	-0.217
190.95	0.4075	-0.2395
191	0.373	-0.2585
191.05	0.3485	-0.273
191.1	0.325	-0.2825
191.15	0.3115	-0.284
191.2	0.3045	-0.281
191.25	0.3005	-0.2685
191.3	0.3045	-0.254
191.35	0.319	-0.235
191.4	0.3365	-0.2155
191.45	0.36	-0.185
191.5	0.389	-0.1555
191.55	0.4265	-0.1215
191.6	0.4655	-0.092
191.65	0.5065	-0.0555
191.7	0.5445	-0.0255
191.75	0.5885	0.006
191.8	0.6315	0.0355
191.85	0.673	0.0665
191.9	0.707	0.084
191.95	0.7425	0.1065
192	0.772	0.1175
192.05	0.7975	0.1285
192.1	0.8115	0.1315
192.15	0.825	0.1315
192.2	0.827	0.1225
192.25	0.826	0.1095
192.3	0.8135	0.089
192.35	0.7985	0.068
192.4	0.773	0.0405
192.45	0.745	0.0155
192.5	0.709	-0.0195
192.55	0.6735	-0.052
192.6	0.6305	-0.088
192.65	0.5905	-0.119
192.7	0.5435	-0.151
192.75	0.5025	-0.179
192.8	0.459	-0.21
192.85	0.4235	-0.2325
192.9	0.387	-0.256
192.95	0.3595	-0.2675
193	0.334	-0.2795
193.05	0.319	-0.281
193.1	0.3065	-0.282
193.15	0.3015	-0.272
193.2	0.302	-0.261
193.25	0.315	-0.2435
193.3	0.3275	-0.221
193.35	0.351	-0.196
193.4	0.378	-0.1715
193.45	0.41	-0.1335
193.5	0.446	-0.105
193.55	0.4875	-0.0685
193.6	0.529	-0.038
193.65	0.575	-0.0025
193.7	0.616	0.027
193.75	0.659	0.0575
193.8	0.694	0.0795
193.85	0.73	0.0985
193.9	0.761	0.1135
193.95	0.7905	0.1255
194	0.8085	0.129
194.05	0.8245	0.133
194.1	0.8275	0.124
194.15	0.827	0.115
194.2	0.8155	0.095
194.25	0.802	0.077
194.3	0.779	0.0485
194.35	0.753	0.0245
194.4	0.719	-0.0095
194.45	0.682	-0.0395
194.5	0.642	-0.073
194.55	0.6025	-0.1055
194.6	0.558	-0.1405
194.65	0.5155	-0.1705
194.7	0.4735	-0.1995
194.75	0.4365	-0.2235
194.8	0.4005	-0.246
194.85	0.371	-0.259
194.9	0.3425	-0.275
194.95	0.3225	-0.279
195	0.309	-0.2805
195.05	0.301	-0.2725
195.1	0.3	-0.2665
195.15	0.308	-0.25
195.2	0.32	-0.2325
195.25	0.343	-0.204
195.3	0.37	-0.1785
195.35	0.4015	-0.144
195.4	0.436	-0.116
195.45	0.4745	-0.08
195.5	0.515	-0.0485
195.55	0.561	-0.015
195.6	0.602	0.0165
195.65	0.6425	0.047
195.7	0.68	0.072
195.75	0.718	0.097
195.8	0.7495	0.1075
195.85	0.78	0.1245
195.9	0.8015	0.1305
195.95	0.8165	0.133
196	0.822	0.127
196.05	0.825	0.1205
196.1	0.8185	0.1045
196.15	0.8065	0.086
196.2	0.785	0.0585
196.25	0.761	0.0335
196.3	0.729	0.0025
196.35	0.694	-0.0275
196.4	0.6555	-0.0625
196.45	0.615	-0.0935
196.5	0.5725	-0.1285
196.55	0.5295	-0.158
196.6	0.486	-0.1895
196.65	0.45	-0.213
196.7	0.411	-0.239
196.75	0.379	-0.256
196.8	0.348	-0.2705
196.85	0.328	-0.2755
196.9	0.3115	-0.281
196.95	0.303	-0.2765
197	0.2985	-0.2715
197.05	0.304	-0.252
197.1	0.3125	-0.235
197.15	0.333	-0.2105
197.2	0.357	-0.1875
197.25	0.387	-0.157
197.3	0.4195	-0.1265
197.35	0.4605	-0.0925
197.4	0.5	-0.062
197.45	0.543	-0.029
197.5	0.5875	0.003
197.55	0.6325	0.037
197.6	0.673	0.063
197.65	0.7085	0.0865
197.7	0.7395	0.103
197.75	0.7705	0.121
197.8	0.795	0.1285
197.85	0.8145	0.134
197.9	0.823	0.1315
197.95	0.827	0.123
198	0.8235	0.107
198.05	0.813	0.0905
198.1	0.7945	0.0645
198.15	0.773	0.043
198.2	0.7405	0.0145
198.25	0.707	-0.0155
198.3	0.6695	-0.051
198.35	0.6295	-0.0835
198.4	0.5885	-0.1165
198.45	0.547	-0.1485
198.5	0.5045	-0.1795
198.55	0.4625	-0.2025
198.6	0.424	-0.23
198.65	0.39	-0.248
198.7	0.358	-0.264
198.75	0.336	-0.2715
198.8	0.314	-0.2785
198.85	0.304	-0.2785
198.9	0.2975	-0.275
198.95	0.302	-0.258
199	0.31	-0.2415
199.05	0.3275	-0.221
199.1	0.346	-0.198
199.15	0.3715	-0.1685
199.2	0.4045	-0.137
199.25	0.4435	-0.1055
199.3	0.484	-0.075
199.35	0.529	-0.039
199.4	0.575	-0.0065
199.45	0.6205	0.024
199.5	0.6585	0.0495
199.55	0.6985	0.0775
199.6	0.733	0.0945
199.65	0.765	0.1155
199.7	0.791	0.1235
199.75	0.8125	0.13
199.8	0.8245	0.1255
199.85	0.832	0.122
199.9	0.828	0.112
199.95	0.82	0.0975
200	0.803	0.0765
200.05	0.785	0.0555
200.1	0.756	0.027
200.15	0.725	-0.002
200.2	0.6885	-0.036
200.25	0.6485	-0.07
200.3	0.606	-0.1015
200.35	0.5655	-0.1345
200.4	0.52	-0.1665
200.45	0.476	-0.1965
200.5	0.4385	-0.2225
200.55	0.4055	-0.2395
200.6	0.3725	-0.2595
200.65	0.3445	-0.27
200.7	0.322	-0.278
200.75	0.3075	-0.276
200.8	0.2975	-0.273
200.85	0.3	-0.264
200.9	0.3035	-0.251
200.95	0.317	-0.2315
201	0.3345	-0.2085
201.05	0.3635	-0.1795
201.1	0.396	-0.1525
201.15	0.4325	-0.1145
201.2	0.4685	-0.0845
201.25	0.51	-0.049
201.3	0.554	-0.0175
201.35	0.598	0.013
201.4	0.639	0.04
201.45	0.682	0.067
201.5	0.718	0.0865
201.55	0.751	0.107
201.6	0.7785	0.1175
201.65	0.8035	0.129
201.7	0.817	0.128
201.75	0.827	0.1265
201.8	0.827	0.1145
201.85	0.8195	0.1035
201.9	0.8055	0.083
201.95	0.7915	0.0635
202	0.767	0.0325
202.05	0.7375	0.005
202.1	0.7035	-0.0235
202.15	0.665	-0.0565
202.2	0.6225	-0.091
202.25	0.579	-0.124
202.3	0.5365	-0.1555
202.35	0.4955	-0.184
202.4	0.451	-0.2125
202.45	0.4145	-0.234
202.5	0.381	-0.255
202.55	0.353	-0.266
202.6	0.3275	-0.276
202.65	0.3125	-0.2775
202.7	0.303	-0.2735
202.75	0.302	-0.262
202.8	0.3035	-0.2535
202.85	0.312	-0.2355
202.9	0.327	-0.2155
202.95	0.353	-0.1895
203	0.3805	-0.162
203.05	0.417	-0.13
203.1	0.4525	-0.099
203.15	0.493	-0.059
203.2	0.5345	-0.0305
203.25	0.5775	0.0005
203.3	0.6215	0.0285
203.35	0.666	0.058
203.4	0.7005	0.082
203.45	0.7385	0.102
203.5	0.7665	0.1145
203.55	0.7905	0.124
203.6	0.807	0.1285
203.65	0.818	0.1275
203.7	0.824	0.1225
203.75	0.8225	0.109
203.8	0.8125	0.089
203.85	0.7965	0.0715
203.9	0.775	0.0435
203.95	0.7485	0.0175
204	0.714	-0.016
204.05	0.679	-0.0455
204.1	0.6395	-0.078
204.15	0.5985	-0.111
204.2	0.5535	-0.146
204.25	0.5115	-0.173
204.3	0.4685	-0.2
204.35	0.43	-0.2245
204.4	0.392	-0.248
204.45	0.3615	-0.2605
204.5	0.3375	-0.273
204.55	0.3175	-0.279
204.6	0.306	-0.279
204.65	0.303	-0.269
204.7	0.3025	-0.2605
204.75	0.307	-0.243
204.8	0.319	-0.2225
204.85	0.341	-0.195
204.9	0.37	-0.171
204.95	0.404	-0.1375
205	0.44	-0.11
205.05	0.4835	-0.075
205.1	0.5225	-0.0425
205.15	0.567	-0.0095
205.2	0.6095	0.0185
205.25	0.654	0.0485
205.3	0.6915	0.072
205.35	0.728	0.096
205.4	0.759	0.1085
205.45	0.7845	0.1205
205.5	0.804	0.1255
205.55	0.82	0.126
205.6	0.8245	0.1195
205.65	0.8265	0.1125
205.7	0.8205	0.099
205.75	0.807	0.0785
205.8	0.785	0.0505
205.85	0.7575	0.028
205.9	0.727	-0.0035
205.95	0.692	-0.0335
206	0.652	-0.0705
206.05	0.6085	-0.101
206.1	0.5645	-0.134
206.15	0.523	-0.1635
206.2	0.4815	-0.193
206.25	0.4425	-0.2185
206.3	0.4065	-0.241
206.35	0.3735	-0.253
206.4	0.3455	-0.2665
206.45	0.324	-0.2755
206.5	0.3055	-0.277
206.55	0.2985	-0.274
206.6	0.2985	-0.264
206.65	0.3035	-0.247
206.7	0.3145	-0.2305
206.75	0.336	-0.2065
206.8	0.362	-0.181
206.85	0.395	-0.1515
206.9	0.428	-0.1225
206.95	0.468	-0.086
207	0.5085	-0.0535
207.05	0.551	-0.0205
207.1	0.5925	0.0075
207.15	0.635	0.0415
207.2	0.6735	0.066
207.25	0.714	0.09
207.3	0.745	0.1025
207.35	0.7745	0.119
207.4	0.7965	0.1255
207.45	0.816	0.1295
207.5	0.8235	0.124
207.55	0.8295	0.1185
207.6	0.8225	0.1
207.65	0.8115	0.0845
207.7	0.7955	0.062
207.75	0.7735	0.036
207.8	0.7415	0.006
207.85	0.7075	-0.023
207.9	0.667	-0.058
207.95	0.6265	-0.091
208	0.5815	-0.1235
208.05	0.539	-0.152
208.1	0.4935	-0.181
208.15	0.4515	-0.2055
208.2	0.413	-0.229
208.25	0.3825	-0.2465
208.3	0.3525	-0.262
208.35	0.3315	-0.2705
208.4	0.312	-0.275
208.45	0.302	-0.2745
208.5	0.2985	-0.269
208.55	0.303	-0.2535
208.6	0.3125	-0.2365
208.65	0.3295	-0.216
208.7	0.352	-0.192
208.75	0.382	-0.163
208.8	0.4145	-0.133
208.85	0.456	-0.0985
208.9	0.4955	-0.0695
208.95	0.5375	-0.0345
209	0.578	-0.005
209.05	0.623	0.025
209.1	0.662	0.0505
209.15	0.699	0.0765
209.2	0.735	0.0975
209.25	0.7675	0.113
209.3	0.794	0.1225
209.35	0.8125	0.128
209.4	0.8245	0.129
209.45	0.828	0.12
209.5	0.827	0.107
209.55	0.817	0.093
209.6	0.801	0.0685
209.65	0.783	0.0455
209.7	0.7535	0.018
209.75	0.7205	-0.009
209.8	0.683	-0.0425
209.85	0.6445	-0.075
209.9	0.6015	-0.113
209.95	0.5585	-0.143
210	0.517	-0.1745
210.05	0.4745	-0.2015
210.1	0.4325	-0.227
210.15	0.3985	-0.244
210.2	0.3645	-0.2605
210.25	0.341	-0.269
210.3	0.3195	-0.2765
210.35	0.308	-0.274
210.4	0.3015	-0.2705
210.45	0.301	-0.2605
210.5	0.306	-0.245
210.55	0.323	-0.2255
210.6	0.342	-0.201
210.65	0.369	-0.1745
210.7	0.3995	-0.144
210.75	0.4365	-0.112
210.8	0.475	-0.082
210.85	0.518	-0.0485
210.9	0.561	-0.0185
210.95	0.6055	0.0155
211	0.646	0.0415
211.05	0.689	0.0695
211.1	0.7245	0.0895
211.15	0.7575	0.1075
211.2	0.7815	0.116
211.25	0.805	0.125
211.3	0.8195	0.1245
211.35	0.8285	0.1215
211.4	0.8275	0.1115
211.45	0.819	0.0985
211.5	0.807	0.0785
211.55	0.7865	0.057
211.6	0.7595	0.03
211.65	0.7295	-0.001
211.7	0.692	-0.034
211.75	0.6565	-0.066
211.8	0.6155	-0.098
211.85	0.5735	-0.128
211.9	0.5275	-0.1635
211.95	0.4905	-0.1895
212	0.4475	-0.2145
212.05	0.41	-0.2365
212.1	0.377	-0.254
212.15	0.3515	-0.265
212.2	0.332	-0.273
212.25	0.3175	-0.276
212.3	0.304	-0.2745
212.35	0.3025	-0.261
212.4	0.3075	-0.249
212.45	0.319	-0.2295
212.5	0.3365	-0.208
212.55	0.3595	-0.18
212.6	0.3895	-0.1535
212.65	0.4245	-0.123
212.7	0.4635	-0.09
212.75	0.506	-0.057
212.8	0.5475	-0.024
212.85	0.593	0.008
212.9	0.6345	0.034
212.95	0.6785	0.0605
213	0.715	0.0835
213.05	0.75	0.1025
213.1	0.776	0.116
213.15	0.7995	0.1255
213.2	0.813	0.124
213.25	0.824	0.1225
213.3	0.8275	0.1155
213.35	0.8275	0.104
213.4	0.817	0.087
213.45	0.798	0.0645
213.5	0.7745	0.0345
213.55	0.7485	0.0085
213.6	0.7145	-0.024
213.65	0.674	-0.0535
213.7	0.6325	-0.088
213.75	0.5915	-0.12
213.8	0.546	-0.151
213.85	0.506	-0.177
213.9	0.4625	-0.203
213.95	0.4255	-0.2255
214	0.3885	-0.2495
214.05	0.361	-0.2625
214.1	0.334	-0.272
214.15	0.316	-0.2755
214.2	0.304	-0.273
214.25	0.2985	-0.265
214.3	0.3015	-0.2555
214.35	0.312	-0.2345
214.4	0.327	-0.2175
214.45	0.3515	-0.192
214.5	0.377	-0.1655
214.55	0.41	-0.1325
214.6	0.448	-0.1
214.65	0.4895	-0.0695
214.7	0.532	-0.038
214.75	0.5765	-0.003
214.8	0.618	0.0225
214.85	0.6615	0.051
214.9	0.7005	0.074
214.95	0.735	0.0935
215	0.7645	0.1085
215.05	0.7935	0.1205
215.1	0.8095	0.1255
215.15	0.824	0.125
215.2	0.8305	0.1185
215.25	0.8305	0.109
215.3	0.82	0.092
215.35	0.8035	0.074
215.4	0.781	0.0505
215.45	0.7535	0.021
215.5	0.72	-0.0115
215.55	0.684	-0.042
215.6	0.6425	-0.0785
215.65	0.603	-0.109
215.7	0.5595	-0.1375
215.75	0.517	-0.1675
215.8	0.4735	-0.1945
215.85	0.4395	-0.2205
215.9	0.401	-0.2415
215.95	0.3705	-0.2545
216	0.34	-0.268
216.05	0.3205	-0.271
216.1	0.3075	-0.2745
216.15	0.301	-0.2685
216.2	0.301	-0.258
216.25	0.3105	-0.24
216.3	0.3215	-0.223
216.35	0.342	-0.1985
216.4	0.3685	-0.1745
216.45	0.401	-0.144
216.5	0.4355	-0.1165
216.55	0.478	-0.0835
216.6	0.5145	-0.0505
216.65	0.558	-0.0175
216.7	0.6015	0.0125
216.75	0.643	0.0435
216.8	0.6835	0.065
216.85	0.722	0.0895
216.9	0.752	0.1055
216.95	0.782	0.1145
217	0.802	0.1215
217.05	0.8185	0.1245
217.1	0.8235	0.12
217.15	0.8275	0.111
217.2	0.819	0.095
217.25	0.8075	0.0765
217.3	0.7875	0.055
217.35	0.764	0.0325
217.4	0.734	-0.0005
217.45	0.701	-0.0315
217.5	0.662	-0.065
217.55	0.6205	-0.0945
217.6	0.575	-0.1295
217.65	0.5335	-0.16
217.7	0.4915	-0.19
217.75	0.4525	-0.2125
217.8	0.4145	-0.2355
217.85	0.3835	-0.2515
217.9	0.3535	-0.263
217.95	0.3315	-0.2705
218	0.3145	-0.2745
218.05	0.3045	-0.269
218.1	0.3	-0.263
218.15	0.3045	-0.2525
218.2	0.3145	-0.2345
218.25	0.3335	-0.211
218.3	0.359	-0.184
218.35	0.3885	-0.1575
218.4	0.4225	-0.128
218.45	0.462	-0.0955
218.5	0.5025	-0.0645
218.55	0.5435	-0.03
218.6	0.5855	-0.001
218.65	0.6265	0.032
218.7	0.668	0.058
218.75	0.7065	0.078
218.8	0.74	0.094
218.85	0.7725	0.11
218.9	0.7935	0.1175
218.95	0.815	0.1235
219	0.823	0.119
219.05	0.8235	0.114
219.1	0.821	0.1015
219.15	0.8155	0.08
219.2	0.8	0.058
219.25	0.775	0.0345
219.3	0.746	0.0075
219.35	0.7165	-0.021
219.4	0.678	-0.053
219.45	0.638	-0.0815
219.5	0.5945	-0.1145
219.55	0.552	-0.147
219.6	0.506	-0.1755
219.65	0.464	-0.2015
219.7	0.424	-0.224
219.75	0.388	-0.2415
219.8	0.3585	-0.257
219.85	0.335	-0.266
219.9	0.3165	-0.27
219.95	0.3045	-0.268
220	0.299	-0.264
220.05	0.3005	-0.2535
220.1	0.308	-0.237
220.15	0.3245	-0.2185
220.2	0.3475	-0.192
220.25	0.374	-0.1635
220.3	0.4075	-0.137
220.35	0.4455	-0.1065
220.4	0.4825	-0.071
220.45	0.5275	-0.0365
220.5	0.566	-0.0075
220.55	0.61	0.022
220.6	0.65	0.0455
220.65	0.6905	0.0695
220.7	0.728	0.085
220.75	0.7625	0.1045
220.8	0.7885	0.115
220.85	0.81	0.1205
220.9	0.822	0.119
220.95	0.8295	0.115
221	0.8285	0.1055
221.05	0.8245	0.089
221.1	0.8085	0.0715
221.15	0.786	0.0495
221.2	0.7585	0.0215
221.25	0.7255	-0.009
221.3	0.687	-0.044
221.35	0.651	-0.0735
221.4	0.6085	-0.105
221.45	0.566	-0.134
221.5	0.522	-0.165
221.55	0.481	-0.192
221.6	0.441	-0.22
221.65	0.4025	-0.2405
221.7	0.369	-0.257
221.75	0.343	-0.2665
221.8	0.3215	-0.2705
221.85	0.3075	-0.271
221.9	0.3015	-0.267
221.95	0.302	-0.254
222	0.3065	-0.2415
222.05	0.3195	-0.223
222.1	0.3385	-0.1995
222.15	0.3635	-0.1735
222.2	0.3945	-0.1465
222.25	0.43	-0.1135
222.3	0.466	-0.084
222.35	0.51	-0.051
222.4	0.554	-0.019
222.45	0.5975	0.0085
222.5	0.6375	0.0365
222.55	0.6765	0.061
222.6	0.7135	0.0795
222.65	0.748	0.102
222.7	0.7755	0.114
222.75	0.7985	0.1215
222.8	0.8145	0.1225
222.85	0.827	0.118
222.9	0.829	0.108
222.95	0.8245	0.0965
223	0.814	0.0765
223.05	0.7955	0.056
223.1	0.772	0.0285
223.15	0.7405	-0.0005
223.2	0.705	-0.03
223.25	0.666	-0.0605
223.3	0.625	-0.0915
223.35	0.5815	-0.123
223.4	0.5355	-0.153
223.45	0.4945	-0.181
223.5	0.4515	-0.2095
223.55	0.4145	-0.231
223.6	0.381	-0.2485
223.65	0.3535	-0.259
223.7	0.33	-0.2695
223.75	0.3135	-0.271
223.8	0.3035	-0.269
223.85	0.301	-0.261
223.9	0.3045	-0.251
223.95	0.3165	-0.231
224	0.3335	-0.2125
224.05	0.358	-0.185
224.1	0.3875	-0.1575
224.15	0.4195	-0.128
224.2	0.4575	-0.0955
224.25	0.499	-0.063
224.3	0.537	-0.033
224.35	0.581	0
224.4	0.6245	0.0295
224.45	0.668	0.0545
224.5	0.7085	0.075
224.55	0.7445	0.096
224.6	0.7715	0.108
224.65	0.7925	0.1185
224.7	0.8095	0.121
224.75	0.8235	0.1225
224.8	0.8305	0.112
224.85	0.831	0.104
224.9	0.82	0.085
224.95	0.801	0.0635
225	0.777	0.0385
225.05	0.7485	0.0125
225.1	0.7155	-0.0155
225.15	0.681	-0.0445
225.2	0.639	-0.0825
225.25	0.5955	-0.1155
225.3	0.5525	-0.147
225.35	0.5125	-0.174
225.4	0.471	-0.2005
225.45	0.4315	-0.223
225.5	0.394	-0.243
225.55	0.3625	-0.256
225.6	0.3385	-0.266
225.65	0.3195	-0.271
225.7	0.307	-0.2715
225.75	0.3005	-0.2665
225.8	0.299	-0.2555
225.85	0.3095	-0.2365
225.9	0.324	-0.218
225.95	0.344	-0.1955
226	0.3715	-0.169
226.05	0.4045	-0.14
226.1	0.441	-0.1075
226.15	0.4815	-0.077
226.2	0.5205	-0.0445
226.25	0.567	-0.013
226.3	0.61	0.0175
226.35	0.6525	0.041
226.4	0.6915	0.0665
226.45	0.729	0.088
226.5	0.759	0.1015
226.55	0.789	0.115
226.6	0.809	0.1175
226.65	0.8255	0.116
226.7	0.8315	0.1135
226.75	0.8305	0.105
226.8	0.821	0.09
226.85	0.808	0.071
226.9	0.7865	0.048
226.95	0.7615	0.0215
227	0.7285	-0.006
227.05	0.693	-0.0375
227.1	0.6555	-0.0705
227.15	0.611	-0.1045
227.2	0.568	-0.132
227.25	0.5265	-0.1605
227.3	0.4865	-0.1885
227.35	0.444	-0.2125
227.4	0.408	-0.2355
227.45	0.3765	-0.251
227.5	0.35	-0.2615
227.55	0.329	-0.267
227.6	0.3115	-0.267
227.65	0.3045	-0.263
227.7	0.305	-0.258
227.75	0.3085	-0.242
227.8	0.3205	-0.225
227.85	0.3395	-0.2
227.9	0.3655	-0.1775
227.95	0.3945	-0.151
228	0.43	-0.1205
228.05	0.4685	-0.087
228.1	0.5095	-0.0575
228.15	0.5525	-0.0255
228.2	0.5935	0.003
228.25	0.6345	0.0305
228.3	0.675	0.057
228.35	0.715	0.0795
228.4	0.7495	0.0955
228.45	0.7765	0.1085
228.5	0.7985	0.1165
228.55	0.8155	0.1185
228.6	0.826	0.116
228.65	0.8295	0.1085
228.7	0.825	0.096
228.75	0.815	0.0775
228.8	0.7955	0.0525
228.85	0.771	0.028
228.9	0.742	-0.001
228.95	0.7085	-0.029
229	0.669	-0.0625
229.05	0.6265	-0.092
229.1	0.5825	-0.1225
229.15	0.5415	-0.152
229.2	0.4985	-0.1805
229.25	0.4615	-0.202
229.3	0.4205	-0.2245
229.35	0.3885	-0.2445
229.4	0.3595	-0.258
229.45	0.336	-0.2675
229.5	0.316	-0.271
229.55	0.306	-0.266
229.6	0.301	-0.2595
229.65	0.304	-0.2485
229.7	0.3125	-0.2305
229.75	0.3315	-0.21
229.8	0.352	-0.187
229.85	0.38	-0.1595
229.9	0.415	-0.131
229.95	0.453	-0.1015
230	0.492	-0.0685
230.05	0.537	-0.0345
230.1	0.5775	-0.004
230.15	0.6235	0.0235
230.2	0.665	0.0505
230.25	0.7045	0.0755
230.3	0.7375	0.095
230.35	0.77	0.1095
230.4	0.795	0.1175
230.45	0.814	0.1225
230.5	0.8265	0.117
230.55	0.8325	0.113
230.6	0.8295	0.102
230.65	0.8175	0.0855
230.7	0.8035	0.064
230.75	0.783	0.0415
230.8	0.7565	0.0125
230.85	0.7235	-0.015
230.9	0.687	-0.048
230.95	0.6485	-0.078
231	0.604	-0.1085
231.05	0.5605	-0.141
231.1	0.516	-0.173
231.15	0.473	-0.1945
231.2	0.4325	-0.218
231.25	0.397	-0.236
231.3	0.365	-0.2545
231.35	0.3415	-0.263
231.4	0.3205	-0.268
231.45	0.3085	-0.268
231.5	0.3025	-0.263
231.55	0.303	-0.2515
231.6	0.3085	-0.239
231.65	0.3225	-0.2225
231.7	0.3415	-0.199
231.75	0.3715	-0.168
231.8	0.4025	-0.1375
231.85	0.4375	-0.108
231.9	0.477	-0.078
231.95	0.519	-0.0445
232	0.5605	-0.0145
232.05	0.605	0.0155
232.1	0.6475	0.0395
232.15	0.6895	0.064
232.2	0.723	0.0845
232.25	0.7545	0.105
232.3	0.7815	0.1145
232.35	0.8035	0.118
232.4	0.8175	0.1195
232.45	0.826	0.115
232.5	0.8295	0.105
232.55	0.822	0.09
232.6	0.8115	0.0705
232.65	0.79	0.0495
232.7	0.7625	0.0245
232.75	0.7305	-0.005
232.8	0.698	-0.0365
232.85	0.659	-0.068
232.9	0.619	-0.1
232.95	0.5785	-0.128
233	0.5315	-0.1595
233.05	0.488	-0.186
233.1	0.4465	-0.2095
233.15	0.41	-0.232
233.2	0.3785	-0.2505
233.25	0.352	-0.26
233.3	0.329	-0.2685
233.35	0.3145	-0.269
233.4	0.3045	-0.268
233.45	0.303	-0.2555
233.5	0.3085	-0.24
233.55	0.3195	-0.2245
233.6	0.337	-0.201
233.65	0.362	-0.175
233.7	0.3925	-0.149
233.75	0.428	-0.1205
233.8	0.4665	-0.086
233.85	0.509	-0.0535
233.9	0.5505	-0.0225
233.95	0.592	0.0065
234	0.632	0.034
234.05	0.6735	0.0575
234.1	0.7105	0.081
234.15	0.745	0.0965
234.2	0.775	0.1075
234.25	0.7985	0.116
234.3	0.8165	0.1185
234.35	0.826	0.1165
234.4	0.8315	0.1075
234.45	0.8285	0.0955
234.5	0.8165	0.0755
234.55	0.799	0.056
234.6	0.773	0.032
234.65	0.745	0.006
234.7	0.711	-0.024
234.75	0.6745	-0.0565
234.8	0.6335	-0.089
234.85	0.592	-0.121
234.9	0.547	-0.148
234.95	0.5025	-0.1775
235	0.4605	-0.201
235.05	0.4225	-0.222
235.1	0.386	-0.2405
235.15	0.356	-0.255
235.2	0.3345	-0.2655
235.25	0.3185	-0.267
235.3	0.308	-0.2655
235.35	0.3005	-0.2575
235.4	0.3035	-0.245
235.45	0.3105	-0.229
235.5	0.3235	-0.209
235.55	0.346	-0.188
235.6	0.3755	-0.1605
235.65	0.4095	-0.13
235.7	0.448	-0.101
235.75	0.489	-0.071
235.8	0.5315	-0.039
235.85	0.573	-0.0075
235.9	0.6165	0.021
235.95	0.659	0.0485
236	0.6935	0.069
236.05	0.7285	0.091
236.1	0.761	0.1045
236.15	0.79	0.113
236.2	0.8105	0.117
236.25	0.823	0.116
236.3	0.8285	0.112
236.35	0.829	0.097
236.4	0.819	0.085
236.45	0.804	0.0655
236.5	0.78	0.043
236.55	0.752	0.017
236.6	0.721	-0.0125
236.65	0.6855	-0.0455
236.7	0.643	-0.0765
236.75	0.598	-0.104
236.8	0.556	-0.1395
236.85	0.513	-0.1655
236.9	0.4725	-0.193
236.95	0.4335	-0.2175
237	0.4005	-0.236
237.05	0.3715	-0.253
237.1	0.344	-0.263
237.15	0.324	-0.266
237.2	0.308	-0.268
237.25	0.3015	-0.262
237.3	0.299	-0.2505
237.35	0.3055	-0.2365
237.4	0.3215	-0.217
237.45	0.34	-0.1945
237.5	0.3655	-0.1695
237.55	0.3985	-0.1435
237.6	0.433	-0.1105
237.65	0.472	-0.0815
237.7	0.515	-0.051
237.75	0.5595	-0.0205
237.8	0.601	0.0125
237.85	0.644	0.0395
237.9	0.684	0.0605
237.95	0.721	0.08
238	0.7555	0.098
238.05	0.782	0.111
238.1	0.803	0.115
238.15	0.817	0.1165
238.2	0.826	0.1135
238.25	0.8295	0.104
238.3	0.827	0.0905
238.35	0.8125	0.076
238.4	0.792	0.0495
238.45	0.7645	0.0245
238.5	0.734	-0.0045
238.55	0.701	-0.033
238.6	0.6635	-0.0635
238.65	0.619	-0.095
238.7	0.5765	-0.123
238.75	0.5335	-0.1565
238.8	0.494	-0.184
238.85	0.4525	-0.2065
238.9	0.414	-0.229
238.95	0.3795	-0.2455
239	0.354	-0.258
239.05	0.3315	-0.2645
239.1	0.315	-0.2695
239.15	0.304	-0.2685
239.2	0.3025	-0.2595
239.25	0.305	-0.242
239.3	0.3165	-0.227
239.35	0.333	-0.2035
239.4	0.359	-0.1815
239.45	0.386	-0.153
239.5	0.4205	-0.1235
239.55	0.458	-0.095
239.6	0.5015	-0.0605
239.65	0.546	-0.0275
239.7	0.59	0.001
239.75	0.632	0.029
239.8	0.672	0.052
239.85	0.708	0.0715
239.9	0.7435	0.0905
239.95	0.772	0.1035
240	0.796	0.114
240.05	0.8125	0.1185
240.1	0.8245	0.1165
240.15	0.827	0.1055
240.2	0.825	0.095
240.25	0.814	0.0775
240.3	0.798	0.058
240.35	0.778	0.0335
240.4	0.7475	0.01
240.45	0.7125	-0.0185
240.5	0.676	-0.0525
240.55	0.635	-0.0835
240.6	0.593	-0.1135
240.65	0.55	-0.146
240.7	0.509	-0.173
240.75	0.4675	-0.2
240.8	0.43	-0.2195
240.85	0.3935	-0.2395
240.9	0.3615	-0.253
240.95	0.3345	-0.263
241	0.317	-0.265
241.05	0.305	-0.266
241.1	0.2985	-0.264
241.15	0.299	-0.2515
241.2	0.31	-0.2345
241.25	0.326	-0.211
241.3	0.348	-0.1895
241.35	0.376	-0.163
241.4	0.411	-0.133
241.45	0.446	-0.1035
241.5	0.487	-0.071
241.55	0.5265	-0.0395
241.6	0.568	-0.007
241.65	0.615	0.019
241.7	0.657	0.0445
241.75	0.694	0.067
241.8	0.7285	0.0875
241.85	0.7605	0.1015
241.9	0.786	0.11
241.95	0.805	0.1145
242	0.821	0.1135
242.05	0.8265	0.107
242.1	0.8275	0.096
242.15	0.82	0.081
242.2	0.806	0.064
242.25	0.7835	0.041
242.3	0.757	0.014
242.35	0.726	-0.0145
242.4	0.6895	-0.043
242.45	0.649	-0.0735
242.5	0.607	-0.1025
242.55	0.5645	-0.1335
242.6	0.523	-0.158
242.65	0.481	-0.187
242.7	0.4415	-0.2135
242.75	0.405	-0.2345
242.8	0.3735	-0.249
242.85	0.3435	-0.263
242.9	0.3235	-0.268
242.95	0.31	-0.27
243	0.3	-0.2655
243.05	0.2995	-0.2565
243.1	0.306	-0.2395
243.15	0.3195	-0.22
243.2	0.339	-0.1945
243.25	0.364	-0.171
243.3	0.401	-0.1435
243.35	0.4335	-0.114
243.4	0.473	-0.085
243.45	0.514	-0.0535
243.5	0.5555	-0.0205
243.55	0.5965	0.009
243.6	0.64	0.0345
243.65	0.6805	0.0575
243.7	0.719	0.08
243.75	0.751	0.099
243.8	0.777	0.112
243.85	0.8	0.1155
243.9	0.8195	0.1165
243.95	0.827	0.114
244	0.8295	0.1075
244.05	0.8235	0.091
244.1	0.8105	0.0735
244.15	0.792	0.05
244.2	0.7685	0.0255
244.25	0.7375	-0.003
244.3	0.7045	-0.0275
244.35	0.665	-0.0605
244.4	0.624	-0.091
244.45	0.58	-0.124
244.5	0.538	-0.1545
244.55	0.4935	-0.184
244.6	0.454	-0.205
244.65	0.415	-0.2275
244.7	0.383	-0.242
244.75	0.352	-0.253
244.8	0.3315	-0.26
244.85	0.315	-0.262
244.9	0.3055	-0.261
244.95	0.298	-0.255
245	0.3025	-0.2435
245.05	0.3125	-0.227
245.1	0.331	-0.2035
245.15	0.3525	-0.1795
245.2	0.385	-0.151
245.25	0.4155	-0.122
245.3	0.457	-0.0915
245.35	0.4975	-0.064
245.4	0.5405	-0.0315
245.45	0.583	-0.0015
245.5	0.624	0.0285
245.55	0.6635	0.0505
245.6	0.7035	0.0725
245.65	0.737	0.0905
245.7	0.769	0.104
245.75	0.7945	0.1105
245.8	0.815	0.114
245.85	0.823	0.111
245.9	0.8275	0.104
245.95	0.8285	0.093
246	0.82	0.0795
246.05	0.803	0.0585
246.1	0.782	0.0375
246.15	0.7525	0.0085
246.2	0.7205	-0.0215
246.25	0.6795	-0.0535
246.3	0.639	-0.083
246.35	0.5945	-0.115
246.4	0.55	-0.143
246.45	0.505	-0.1715
246.5	0.465	-0.1925
246.55	0.4255	-0.218
246.6	0.395	-0.2355
246.65	0.363	-0.2505
246.7	0.3385	-0.258
246.75	0.3195	-0.2645
246.8	0.307	-0.2635
246.85	0.3	-0.2585
246.9	0.302	-0.2485
246.95	0.3065	-0.231
247	0.3225	-0.2105
247.05	0.3435	-0.1915
247.1	0.3705	-0.164
247.15	0.4025	-0.1365
247.2	0.439	-0.106
247.25	0.477	-0.0755
247.3	0.522	-0.0395
247.35	0.5625	-0.0135
247.4	0.609	0.016
247.45	0.6515	0.044
247.5	0.6935	0.0665
247.55	0.7275	0.0835
247.6	0.76	0.1
247.65	0.787	0.108
247.7	0.811	0.115
247.75	0.821	0.1135
247.8	0.8315	0.11
247.85	0.832	0.101
247.9	0.825	0.0845
247.95	0.8075	0.0625
248	0.7855	0.042
248.05	0.758	0.0175
248.1	0.729	-0.0105
248.15	0.6935	-0.0405
248.2	0.655	-0.069
248.25	0.6105	-0.103
248.3	0.569	-0.1315
248.35	0.5245	-0.162
248.4	0.486	-0.189
248.45	0.4465	-0.209
248.5	0.409	-0.2275
248.55	0.3775	-0.2465
248.6	0.3505	-0.2555
248.65	0.326	-0.2605
248.7	0.3145	-0.2605
248.75	0.304	-0.2625
248.8	0.3025	-0.252
248.85	0.308	-0.24
248.9	0.3205	-0.2205
248.95	0.339	-0.2
249	0.365	-0.176
249.05	0.394	-0.1455
249.1	0.4315	-0.1155
249.15	0.4665	-0.0855
249.2	0.5085	-0.0545
249.25	0.551	-0.0255
249.3	0.599	0.0065
249.35	0.639	0.032
249.4	0.678	0.0545
249.45	0.715	0.072
249.5	0.7505	0.0905
249.55	0.7745	0.101
249.6	0.7995	0.1085
249.65	0.8155	0.114
249.7	0.8285	0.1135
249.75	0.8295	0.1015
249.8	0.8295	0.0905
249.85	0.8145	0.0695
249.9	0.796	0.05
249.95	0.7695	0.024
250	0.7405	-0.001
250.05	0.708	-0.03
250.1	0.6695	-0.056
250.15	0.627	-0.0875
250.2	0.586	-0.1175
250.25	0.544	-0.149
250.3	0.4985	-0.1765
250.35	0.459	-0.201
250.4	0.4205	-0.2225
250.45	0.384	-0.24
250.5	0.3535	-0.2525
250.55	0.3265	-0.2595
250.6	0.309	-0.2605
250.65	0.298	-0.2615
250.7	0.2975	-0.2535
250.75	0.2995	-0.242
250.8	0.3085	-0.2275
250.85	0.327	-0.209
250.9	0.3535	-0.184
250.95	0.379	-0.1595
251	0.413	-0.1285
251.05	0.4475	-0.0985
251.1	0.487	-0.0645
251.15	0.531	-0.0365
251.2	0.5765	-0.004
251.25	0.621	0.0195
251.3	0.6655	0.049
251.35	0.7035	0.066
251.4	0.737	0.0845
251.45	0.764	0.098
251.5	0.792	0.111
251.55	0.812	0.1145
251.6	0.8265	0.1145
251.65	0.831	0.105
251.7	0.829	0.0965
251.75	0.8185	0.078
251.8	0.802	0.058
251.85	0.78	0.033
251.9	0.7545	0.0075
251.95	0.7205	-0.022
252	0.6845	-0.0495
252.05	0.6415	-0.08
252.1	0.599	-0.1075
252.15	0.557	-0.14
252.2	0.518	-0.1685
252.25	0.4745	-0.195
252.3	0.4355	-0.2135
252.35	0.398	-0.2325
252.4	0.367	-0.2455
252.45	0.3395	-0.2605
252.5	0.324	-0.2625
252.55	0.309	-0.2625
252.6	0.2995	-0.2575
252.65	0.298	-0.2475
252.7	0.306	-0.2305
252.75	0.3205	-0.212
252.8	0.343	-0.192
252.85	0.3675	-0.17
252.9	0.4005	-0.1395
252.95	0.4375	-0.1105
253	0.4765	-0.0775
253.05	0.5175	-0.049
253.1	0.561	-0.0155
253.15	0.604	0.013
253.2	0.6475	0.039
253.25	0.685	0.0575
253.3	0.725	0.079
253.35	0.7575	0.0935
253.4	0.7855	0.1055
253.45	0.804	0.11
253.5	0.821	0.1115
253.55	0.832	0.107
253.6	0.834	0.1005
253.65	0.8285	0.083
253.7	0.813	0.0655
253.75	0.79	0.0455
253.8	0.765	0.0225
253.85	0.7305	-0.007
253.9	0.6955	-0.036
253.95	0.658	-0.069
254	0.6185	-0.099
254.05	0.5735	-0.127
254.1	0.5315	-0.154
254.15	0.4895	-0.1805
254.2	0.451	-0.2055
254.25	0.413	-0.2295
254.3	0.3815	-0.243
254.35	0.352	-0.2555
254.4	0.33	-0.2595
254.45	0.3115	-0.2605
254.5	0.302	-0.2555
254.55	0.2965	-0.25
254.6	0.302	-0.2365
254.65	0.3115	-0.2175
254.7	0.335	-0.1945
254.75	0.3575	-0.1755
254.8	0.391	-0.145
254.85	0.4215	-0.1165
254.9	0.4615	-0.0845
254.95	0.5025	-0.06
255	0.5465	-0.03
255.05	0.588	-0.0025
255.1	0.631	0.0285
255.15	0.6725	0.051
255.2	0.7135	0.074
255.25	0.7475	0.0885
255.3	0.7775	0.1035
255.35	0.8	0.1085
255.4	0.817	0.1105
255.45	0.8255	0.108
255.5	0.831	0.1025
255.55	0.83	0.091
255.6	0.8215	0.0725
255.65	0.8035	0.0525
255.7	0.779	0.0285
255.75	0.744	0.003
255.8	0.711	-0.024
255.85	0.673	-0.0555
255.9	0.636	-0.0835
255.95	0.59	-0.1165
256	0.545	-0.144
256.05	0.501	-0.174
256.1	0.4635	-0.195
256.15	0.423	-0.2165
256.2	0.3905	-0.2365
256.25	0.3595	-0.2505
256.3	0.337	-0.257
256.35	0.317	-0.26
256.4	0.3035	-0.2585
256.45	0.2955	-0.2545
256.5	0.3	-0.2425
256.55	0.307	-0.2265
256.6	0.327	-0.2075
256.65	0.3475	-0.185
256.7	0.374	-0.159
256.75	0.4075	-0.134
256.8	0.449	-0.0995
256.85	0.4875	-0.0695
256.9	0.5315	-0.0385
256.95	0.5745	-0.0095
257	0.6185	0.02
257.05	0.657	0.041
257.1	0.699	0.0655
257.15	0.7345	0.08
257.2	0.7675	0.096
257.25	0.7905	0.1035
257.3	0.8145	0.1105
257.35	0.823	0.1105
257.4	0.8285	0.1065
257.45	0.826	0.095
257.5	0.8205	0.0805
257.55	0.804	0.0595
257.6	0.784	0.0365
257.65	0.7555	0.013
257.7	0.7235	-0.015
257.75	0.6855	-0.0475
257.8	0.648	-0.08
257.85	0.6065	-0.1075
257.9	0.5635	-0.1355
257.95	0.5185	-0.1645
258	0.48	-0.19
258.05	0.4385	-0.2105
258.1	0.402	-0.228
258.15	0.3695	-0.244
258.2	0.344	-0.255
258.25	0.321	-0.259
258.3	0.3075	-0.2585
258.35	0.2995	-0.256
258.4	0.3025	-0.2465
258.45	0.309	-0.2315
258.5	0.3235	-0.2115
258.55	0.3395	-0.192
258.6	0.3665	-0.166
258.65	0.396	-0.138
258.7	0.434	-0.107
258.75	0.4735	-0.0785
258.8	0.5175	-0.0475
258.85	0.5585	-0.02
258.9	0.6035	0.0105
258.95	0.645	0.036
259	0.6865	0.061
259.05	0.722	0.076
259.1	0.7545	0.0935
259.15	0.7815	0.1045
259.2	0.805	0.111
259.25	0.8195	0.1075
259.3	0.8295	0.1045
259.35	0.831	0.097
259.4	0.826	0.0885
259.45	0.814	0.0685
259.5	0.7955	0.0485
259.55	0.768	0.0215
259.6	0.738	-0.0045
259.65	0.7025	-0.0335
259.7	0.662	-0.0645
259.75	0.619	-0.098
259.8	0.5765	-0.1245
259.85	0.5325	-0.1525
259.9	0.493	-0.1785
259.95	0.4495	-0.2035
260	0.412	-0.2225
260.05	0.378	-0.2385
260.1	0.3525	-0.2505
260.15	0.3285	-0.258
260.2	0.3125	-0.259
260.25	0.3015	-0.256
260.3	0.301	-0.25
260.35	0.303	-0.238
260.4	0.3125	-0.2215
260.45	0.33	-0.2
260.5	0.358	-0.1755
260.55	0.389	-0.1495
260.6	0.423	-0.1205
260.65	0.4595	-0.092
260.7	0.5005	-0.0585
260.75	0.543	-0.032
260.8	0.5895	-0.002
260.85	0.629	0.024
260.9	0.6695	0.0485
260.95	0.7085	0.07
261	0.745	0.0875
261.05	0.772	0.099
261.1	0.798	0.1055
261.15	0.814	0.1095
261.2	0.825	0.1095
261.25	0.827	0.103
261.3	0.826	0.091
261.35	0.8175	0.074
261.4	0.801	0.0535
261.45	0.775	0.031
261.5	0.748	0.004
261.55	0.712	-0.026
261.6	0.6755	-0.0515
261.65	0.6335	-0.083
261.7	0.591	-0.112
261.75	0.5495	-0.1395
261.8	0.505	-0.168
261.85	0.463	-0.1985
261.9	0.423	-0.2185
261.95	0.3855	-0.2355
262	0.358	-0.248
262.05	0.3335	-0.258
262.1	0.3165	-0.2605
262.15	0.303	-0.2585
262.2	0.3	-0.251
262.25	0.3	-0.2425
262.3	0.308	-0.224
262.35	0.3215	-0.206
262.4	0.3445	-0.186
262.45	0.3715	-0.161
262.5	0.404	-0.132
262.55	0.444	-0.1035
262.6	0.4855	-0.0705
262.65	0.5255	-0.0385
262.7	0.57	-0.0125
262.75	0.6135	0.0145
262.8	0.6565	0.0415
262.85	0.696	0.063
262.9	0.7335	0.0795
262.95	0.7635	0.096
263	0.7885	0.108
263.05	0.806	0.1115
263.1	0.821	0.108
263.15	0.828	0.102
263.2	0.8275	0.094
263.25	0.821	0.08
263.3	0.809	0.0615
263.35	0.7885	0.04
263.4	0.7615	0.0155
263.45	0.7285	-0.013
263.5	0.694	-0.0435
263.55	0.6525	-0.072
263.6	0.611	-0.101
263.65	0.567	-0.131
263.7	0.5245	-0.161
263.75	0.48	-0.1855
263.8	0.4405	-0.2055
263.85	0.4015	-0.2245
263.9	0.3695	-0.24
263.95	0.3425	-0.25
264	0.325	-0.257
264.05	0.309	-0.2555
264.1	0.303	-0.251
264.15	0.3015	-0.241
264.2	0.307	-0.2315
264.25	0.3195	-0.2155
264.3	0.3385	-0.194
264.35	0.3625	-0.1685
264.4	0.394	-0.1385
264.45	0.4295	-0.114
264.5	0.472	-0.0825
264.55	0.515	-0.052
264.6	0.558	-0.021
264.65	0.6	0.008
264.7	0.644	0.032
264.75	0.681	0.0535
264.8	0.7195	0.075
264.85	0.7515	0.0885
264.9	0.7825	0.1015
264.95	0.8035	0.108
265	0.8195	0.108
265.05	0.8295	0.1045
265.1	0.8285	0.0965
265.15	0.823	0.0825
265.2	0.814	0.0665
265.25	0.796	0.0465
265.3	0.771	0.0205
265.35	0.7425	-0.004
265.4	0.705	-0.033
265.45	0.6675	-0.063
265.5	0.6265	-0.094
265.55	0.582	-0.1215
265.6	0.5385	-0.1515
265.65	0.4965	-0.1805
265.7	0.4535	-0.2035
265.75	0.417	-0.2215
265.8	0.3835	-0.2385
265.85	0.353	-0.252
265.9	0.3295	-0.256
265.95	0.31	-0.2575
266	0.2985	-0.255
266.05	0.2935	-0.248
266.1	0.3005	-0.236
266.15	0.312	-0.2195
266.2	0.331	-0.1995
266.25	0.355	-0.1785
266.3	0.3835	-0.1525
266.35	0.4185	-0.1235
266.4	0.457	-0.0925
266.45	0.496	-0.0635
266.5	0.5375	-0.037
266.55	0.581	-0.007
266.6	0.6255	0.0195
266.65	0.6675	0.046
266.7	0.7035	0.0645
266.75	0.738	0.0805
266.8	0.7715	0.0945
266.85	0.796	0.104
266.9	0.8145	0.1075
266.95	0.826	0.1075
267	0.831	0.1
267.05	0.829	0.0895
267.1	0.8185	0.0735
267.15	0.8	0.0535
267.2	0.777	0.0315
267.25	0.751	0.0045
267.3	0.72	-0.0255
267.35	0.6815	-0.05
267.4	0.6405	-0.0815
267.45	0.5975	-0.1105
267.5	0.5555	-0.1385
267.55	0.511	-0.1665
267.6	0.4675	-0.1905
267.65	0.4275	-0.214
267.7	0.3925	-0.23
267.75	0.363	-0.242
267.8	0.336	-0.2525
267.85	0.317	-0.2545
267.9	0.3035	-0.2545
267.95	0.2955	-0.2535
268	0.2945	-0.2405
268.05	0.305	-0.2265
268.1	0.323	-0.209
268.15	0.344	-0.1865
268.2	0.371	-0.1625
268.25	0.4	-0.137
268.3	0.438	-0.106
268.35	0.4775	-0.076
268.4	0.5205	-0.0465
268.45	0.566	-0.018
268.5	0.6095	0.008
268.55	0.6495	0.034
268.6	0.69	0.056
268.65	0.727	0.0745
268.7	0.7585	0.089
268.75	0.7855	0.099
268.8	0.807	0.106
268.85	0.821	0.1075
268.9	0.8275	0.101
268.95	0.827	0.0945
269	0.821	0.077
269.05	0.809	0.058
269.1	0.79	0.0365
269.15	0.763	0.0125
269.2	0.7295	-0.015
269.25	0.6945	-0.042
269.3	0.6535	-0.069
269.35	0.611	-0.097
269.4	0.567	-0.128
269.45	0.522	-0.158
269.5	0.481	-0.181
269.55	0.442	-0.2065
269.6	0.407	-0.2255
269.65	0.373	-0.2405
269.7	0.3455	-0.25
269.75	0.3215	-0.2565
269.8	0.3055	-0.2585
269.85	0.298	-0.256
269.9	0.296	-0.248
269.95	0.3015	-0.2345
270	0.3145	-0.2155
270.05	0.3355	-0.195
270.1	0.359	-0.1685
270.15	0.39	-0.1415
270.2	0.4275	-0.112
270.25	0.4685	-0.0815
270.3	0.5095	-0.0555
270.35	0.549	-0.026
270.4	0.5935	0.0005
270.45	0.636	0.025
270.5	0.6785	0.051
270.55	0.716	0.072
270.6	0.749	0.0865
270.65	0.7775	0.0975
270.7	0.801	0.105
270.75	0.8175	0.105
270.8	0.8265	0.102
270.85	0.8295	0.0965
270.9	0.8255	0.0825
270.95	0.813	0.0695
271	0.796	0.0505
271.05	0.772	0.0265
271.1	0.7395	0.0015
271.15	0.703	-0.0275
271.2	0.666	-0.0575
271.25	0.6265	-0.086
271.3	0.5845	-0.1145
271.35	0.539	-0.1485
271.4	0.496	-0.173
271.45	0.454	-0.1925
271.5	0.415	-0.2155
271.55	0.3815	-0.2325
271.6	0.352	-0.247
271.65	0.3325	-0.2575
271.7	0.3145	-0.2585
271.75	0.3055	-0.254
271.8	0.302	-0.248
271.85	0.305	-0.2365
271.9	0.315	-0.219
271.95	0.3295	-0.2015
272	0.35	-0.177
272.05	0.38	-0.152
272.1	0.4125	-0.122
272.15	0.4515	-0.093
272.2	0.491	-0.064
272.25	0.533	-0.039
272.3	0.5775	-0.0125
272.35	0.62	0.015
272.4	0.6625	0.0405
272.45	0.7015	0.0615
272.5	0.736	0.0815
272.55	0.7685	0.096
272.6	0.7915	0.1025
272.65	0.8095	0.1075
272.7	0.8215	0.104
272.75	0.828	0.102
272.8	0.8265	0.0895
272.85	0.8175	0.0705
272.9	0.8	0.0535
272.95	0.78	0.033
273	0.75	0.008
273.05	0.718	-0.02
273.1	0.682	-0.051
273.15	0.6425	-0.077
273.2	0.601	-0.1075
273.25	0.5565	-0.1365
273.3	0.5135	-0.163
273.35	0.4715	-0.185
273.4	0.431	-0.207
273.45	0.3975	-0.226
273.5	0.366	-0.2395
273.55	0.34	-0.2515
273.6	0.318	-0.256
273.65	0.306	-0.2565
273.7	0.298	-0.253
273.75	0.299	-0.242
273.8	0.308	-0.227
273.85	0.32	-0.208
273.9	0.3405	-0.1875
273.95	0.3685	-0.1635
274	0.402	-0.138
274.05	0.439	-0.1055
274.1	0.4755	-0.0765
274.15	0.5175	-0.0445
274.2	0.56	-0.018
274.25	0.6055	0.0095
274.3	0.651	0.036
274.35	0.693	0.057
274.4	0.727	0.0745
274.45	0.7605	0.0885
274.5	0.7865	0.099
274.55	0.8065	0.103
274.6	0.8215	0.103
274.65	0.8285	0.101
274.7	0.8285	0.093
274.75	0.823	0.079
274.8	0.807	0.0635
274.85	0.7885	0.044
274.9	0.765	0.019
274.95	0.7335	-0.009
275	0.696	-0.037
275.05	0.6565	-0.0675
275.1	0.615	-0.098
275.15	0.5715	-0.125
275.2	0.53	-0.154
275.25	0.4875	-0.1795
275.3	0.4465	-0.2005
275.35	0.4095	-0.223
275.4	0.3745	-0.2375
275.45	0.346	-0.249
275.5	0.323	-0.2515
275.55	0.307	-0.2525
275.6	0.298	-0.2525
275.65	0.2945	-0.246
275.7	0.3	-0.2325
275.75	0.3145	-0.2125
275.8	0.335	-0.1935
275.85	0.3605	-0.1715
275.9	0.3895	-0.143
275.95	0.425	-0.114
276	0.463	-0.088
276.05	0.502	-0.056
276.1	0.546	-0.0285
276.15	0.591	-0.0015
276.2	0.6345	0.025
276.25	0.676	0.0485
276.3	0.712	0.0665
276.35	0.7455	0.0825
276.4	0.7735	0.097
276.45	0.798	0.1
276.5	0.8165	0.1045
276.55	0.8265	0.105
276.6	0.831	0.0985
276.65	0.8255	0.09
276.7	0.8135	0.0715
276.75	0.7985	0.049
276.8	0.7745	0.027
276.85	0.7425	0.0025
276.9	0.7095	-0.0255
276.95	0.673	-0.0545
277	0.629	-0.0845
277.05	0.586	-0.1155
277.1	0.544	-0.147
277.15	0.4995	-0.1695
277.2	0.46	-0.1935
277.25	0.4195	-0.217
277.3	0.3845	-0.2345
277.35	0.354	-0.2455
277.4	0.3295	-0.252
277.45	0.312	-0.256
277.5	0.301	-0.2525
277.55	0.2945	-0.245
277.6	0.298	-0.2355
277.65	0.3085	-0.2195
277.7	0.3255	-0.201
277.75	0.3495	-0.179
277.8	0.3775	-0.1575
277.85	0.409	-0.129
277.9	0.4445	-0.1005
277.95	0.487	-0.0725
278	0.5295	-0.042
278.05	0.573	-0.0135
278.1	0.6155	0.014
278.15	0.6555	0.038
278.2	0.695	0.059
278.25	0.733	0.0735
278.3	0.765	0.091
278.35	0.791	0.101
278.4	0.8115	0.1045
278.45	0.823	0.105
278.5	0.829	0.0975
278.55	0.8285	0.088
278.6	0.818	0.0735
278.65	0.802	0.056
278.7	0.784	0.0345
278.75	0.7565	0.01
278.8	0.723	-0.016
278.85	0.687	-0.048
278.9	0.6445	-0.0755
278.95	0.603	-0.1045
279	0.56	-0.1325
279.05	0.5175	-0.158
279.1	0.4745	-0.1845
279.15	0.4345	-0.207
279.2	0.3985	-0.2265
279.25	0.3665	-0.2395
279.3	0.3415	-0.247
279.35	0.32	-0.253
279.4	0.3055	-0.2555
279.45	0.3005	-0.251
279.5	0.299	-0.243
279.55	0.3045	-0.2265
279.6	0.3195	-0.2115
279.65	0.3425	-0.1875
279.7	0.365	-0.1625
279.75	0.396	-0.1375
279.8	0.4325	-0.1095
279.85	0.473	-0.083
279.9	0.517	-0.0515
279.95	0.5595	-0.0235
280	0.6	0.0035
280.05	0.643	0.029
280.1	0.684	0.0505
280.15	0.7205	0.07
280.2	0.7525	0.0855
280.25	0.7815	0.0955
280.3	0.803	0.102
280.35	0.8195	0.102
280.4	0.8285	0.099
280.45	0.8305	0.09
280.5	0.824	0.0775
280.55	0.8095	0.0615
280.6	0.791	0.043
280.65	0.766	0.0175
280.7	0.7355	-0.0095
280.75	0.7005	-0.038
280.8	0.662	-0.068
280.85	0.6205	-0.095
280.9	0.5775	-0.122
280.95	0.5325	-0.149
281	0.489	-0.1735
281.05	0.448	-0.1965
281.1	0.4085	-0.221
281.15	0.376	-0.2365
281.2	0.349	-0.248
281.25	0.3285	-0.2535
281.3	0.3135	-0.2535
281.35	0.3045	-0.251
281.4	0.3015	-0.244
281.45	0.3055	-0.232
281.5	0.316	-0.215
281.55	0.331	-0.1945
281.6	0.3555	-0.175
281.65	0.3855	-0.1455
281.7	0.42	-0.117
281.75	0.456	-0.091
281.8	0.499	-0.062
281.85	0.542	-0.0325
281.9	0.5875	-0.0045
281.95	0.632	0.019
282	0.674	0.042
282.05	0.7135	0.062
282.1	0.7445	0.0785
282.15	0.774	0.0905
282.2	0.7955	0.098
282.25	0.813	0.1025
282.3	0.8255	0.1025
282.35	0.831	0.096
282.4	0.8295	0.083
282.45	0.8175	0.0665
282.5	0.801	0.0485
282.55	0.778	0.0285
282.6	0.749	0.003
282.65	0.7155	-0.0245
282.7	0.6755	-0.0545
282.75	0.6355	-0.083
282.8	0.5925	-0.111
282.85	0.5475	-0.141
282.9	0.502	-0.1675
282.95	0.4615	-0.1915
283	0.425	-0.212
283.05	0.388	-0.2315
283.1	0.358	-0.2425
283.15	0.3345	-0.2495
283.2	0.316	-0.2525
283.25	0.3045	-0.254
283.3	0.2975	-0.248
283.35	0.299	-0.2375
283.4	0.3065	-0.2235
283.45	0.323	-0.2045
283.5	0.346	-0.1815
283.55	0.373	-0.157
283.6	0.4065	-0.13
283.65	0.441	-0.102
283.7	0.481	-0.0725
283.75	0.5235	-0.0435
283.8	0.567	-0.014
283.85	0.612	0.0125
283.9	0.655	0.036
283.95	0.6955	0.059
284	0.731	0.077
284.05	0.76	0.0895
284.1	0.787	0.098
284.15	0.808	0.102
284.2	0.8225	0.1
284.25	0.829	0.0965
284.3	0.8295	0.087
284.35	0.823	0.073
284.4	0.8095	0.057
284.45	0.787	0.035
284.5	0.7605	0.015
284.55	0.7255	-0.014
284.6	0.689	-0.042
284.65	0.6495	-0.072
284.7	0.6075	-0.1005
284.75	0.563	-0.129
284.8	0.52	-0.157
284.85	0.4785	-0.1825
284.9	0.4395	-0.204
284.95	0.404	-0.222
285	0.372	-0.233
285.05	0.344	-0.2445
285.1	0.3225	-0.2495
285.15	0.308	-0.2515
285.2	0.3005	-0.247
285.25	0.2985	-0.2385
285.3	0.303	-0.2265
285.35	0.318	-0.2095
285.4	0.3365	-0.19
285.45	0.3625	-0.167
285.5	0.395	-0.1425
285.55	0.4305	-0.1135
285.6	0.4675	-0.083
285.65	0.511	-0.054
285.7	0.557	-0.028
285.75	0.5995	0.0025
285.8	0.641	0.028
285.85	0.6825	0.0495
285.9	0.7205	0.067
285.95	0.7535	0.083
286	0.7825	0.0945
286.05	0.805	0.1035
286.1	0.82	0.1035
286.15	0.8275	0.102
286.2	0.8275	0.0925
286.25	0.8225	0.0775
286.3	0.812	0.059
286.35	0.7925	0.04
286.4	0.7715	0.0175
286.45	0.742	-0.008
286.5	0.706	-0.0365
286.55	0.6685	-0.0625
286.6	0.626	-0.0935
286.65	0.5825	-0.123
286.7	0.539	-0.147
286.75	0.4965	-0.1755
286.8	0.456	-0.1965
286.85	0.416	-0.216
286.9	0.382	-0.234
286.95	0.3525	-0.244
287	0.3325	-0.2495
287.05	0.315	-0.2545
287.1	0.3045	-0.252
287.15	0.303	-0.246
287.2	0.306	-0.2305
287.25	0.3145	-0.216
287.3	0.332	-0.195
287.35	0.3555	-0.174
287.4	0.386	-0.149
287.45	0.4165	-0.121
287.5	0.458	-0.093
287.55	0.4955	-0.065
287.6	0.5365	-0.0355
287.65	0.5805	-0.0055
287.7	0.6245	0.02
287.75	0.6665	0.0415
287.8	0.706	0.0635
287.85	0.7395	0.079
287.9	0.7715	0.089
287.95	0.7955	0.097
288	0.811	0.1035
288.05	0.8235	0.1045
288.1	0.83	0.0955
288.15	0.829	0.0845
288.2	0.8165	0.0685
288.25	0.8005	0.0515
288.3	0.779	0.0305
288.35	0.75	0.0045
288.4	0.719	-0.022
288.45	0.6805	-0.051
288.5	0.6415	-0.082
288.55	0.597	-0.1125
288.6	0.5545	-0.138
288.65	0.511	-0.163
288.7	0.4705	-0.189
288.75	0.4285	-0.21
288.8	0.3945	-0.228
288.85	0.3645	-0.24
288.9	0.3365	-0.2445
288.95	0.3155	-0.2485
289	0.303	-0.2485
289.05	0.297	-0.2445
289.1	0.2995	-0.233
289.15	0.307	-0.2175
289.2	0.3225	-0.2025
289.25	0.3425	-0.1815
289.3	0.373	-0.159
289.35	0.403	-0.129
289.4	0.4435	-0.101
289.45	0.482	-0.0715
289.5	0.526	-0.043
289.55	0.567	-0.014
289.6	0.6105	0.012
289.65	0.6525	0.0335
289.7	0.6945	0.054
289.75	0.733	0.072
289.8	0.764	0.088
289.85	0.7905	0.095
289.9	0.8115	0.1025
289.95	0.825	0.1005
290	0.8315	0.0965
290.05	0.8285	0.0865
290.1	0.8245	0.073
290.15	0.8085	0.058
290.2	0.7885	0.0375
290.25	0.763	0.013
290.3	0.7305	-0.011
290.35	0.691	-0.0395
290.4	0.6555	-0.067
290.45	0.611	-0.0965
290.5	0.568	-0.1235
290.55	0.5235	-0.1525
290.6	0.482	-0.176
290.65	0.44	-0.1995
290.7	0.405	-0.217
290.75	0.37	-0.2345
290.8	0.342	-0.2445
290.85	0.324	-0.2485
290.9	0.31	-0.2515
290.95	0.301	-0.248
291	0.299	-0.2375
291.05	0.303	-0.225
291.1	0.3185	-0.209
291.15	0.3365	-0.1925
291.2	0.3625	-0.167
291.25	0.392	-0.144
291.3	0.4305	-0.1165
291.35	0.4675	-0.0865
291.4	0.509	-0.0575
291.45	0.5505	-0.0295
291.5	0.5945	-0.002
291.55	0.6365	0.024
291.6	0.6775	0.047
291.65	0.715	0.066
291.7	0.749	0.082
291.75	0.777	0.092
291.8	0.802	0.0995
291.85	0.8185	0.101
291.9	0.8305	0.098
291.95	0.833	0.09
292	0.83	0.079
292.05	0.8175	0.0595
292.1	0.802	0.0395
292.15	0.776	0.019
292.2	0.746	-0.005
292.25	0.7075	-0.0315
292.3	0.67	-0.058
292.35	0.6295	-0.0895
292.4	0.586	-0.1185
292.45	0.541	-0.146
292.5	0.4965	-0.17
292.55	0.456	-0.194
292.6	0.421	-0.2115
292.65	0.3855	-0.229
292.7	0.3575	-0.241
292.75	0.333	-0.248
292.8	0.315	-0.2495
292.85	0.3	-0.249
292.9	0.298	-0.24
292.95	0.301	-0.232
293	0.3135	-0.216
293.05	0.3285	-0.2
293.1	0.35	-0.174
293.15	0.378	-0.15
293.2	0.416	-0.1195
293.25	0.452	-0.094
293.3	0.4935	-0.0655
293.35	0.532	-0.0385
293.4	0.5775	-0.01
293.45	0.6215	0.0175
293.5	0.6675	0.0405
293.55	0.7035	0.059
293.6	0.7365	0.0755
293.65	0.7665	0.0885
293.7	0.792	0.0965
293.75	0.81	0.1005
293.8	0.8255	0.1005
293.85	0.8295	0.0915
293.9	0.827	0.0825
293.95	0.8185	0.069
294	0.8035	0.051
294.05	0.778	0.031
294.1	0.7555	0.0085
294.15	0.7215	-0.02
294.2	0.684	-0.048
294.25	0.6435	-0.077
294.3	0.5995	-0.104
294.35	0.5565	-0.1345
294.4	0.516	-0.16
294.45	0.472	-0.1855
294.5	0.434	-0.207
294.55	0.3965	-0.225
294.6	0.366	-0.236
294.65	0.337	-0.245
294.7	0.3195	-0.25
294.75	0.305	-0.252
294.8	0.3	-0.2435
294.85	0.2995	-0.2355
294.9	0.308	-0.224
294.95	0.3215	-0.208
295	0.343	-0.184
295.05	0.3695	-0.1605
295.1	0.401	-0.134
295.15	0.438	-0.109
295.2	0.479	-0.076
295.25	0.5185	-0.051
295.3	0.563	-0.018
295.35	0.607	0.007
295.4	0.6485	0.0325
295.45	0.6905	0.051
295.5	0.7275	0.0695
295.55	0.76	0.0825
295.6	0.7895	0.0945
295.65	0.8095	0.099
295.7	0.823	0.103
295.75	0.8305	0.096
295.8	0.832	0.0855
295.85	0.824	0.0745
295.9	0.813	0.058
295.95	0.791	0.0365
296	0.7645	0.0145
296.05	0.732	-0.0115
296.1	0.697	-0.035
296.15	0.6585	-0.065
296.2	0.618	-0.0945
296.25	0.5735	-0.125
296.3	0.5305	-0.151
296.35	0.4855	-0.175
296.4	0.447	-0.196
296.45	0.409	-0.214
296.5	0.38	-0.229
296.55	0.3505	-0.2395
296.6	0.3295	-0.2435
296.65	0.3115	-0.2435
296.7	0.301	-0.242
296.75	0.2945	-0.2355
296.8	0.301	-0.2225
296.85	0.316	-0.208
296.9	0.335	-0.1905
296.95	0.3585	-0.1695
297	0.3895	-0.1425
297.05	0.4245	-0.117
297.1	0.4635	-0.088
297.15	0.503	-0.0595
297.2	0.5475	-0.0305
297.25	0.591	-0.002
297.3	0.635	0.026
297.35	0.67	0.047
297.4	0.708	0.0675
297.45	0.743	0.079
297.5	0.7725	0.092
297.55	0.7975	0.102
297.6	0.8175	0.1035
297.65	0.827	0.0995
297.7	0.8315	0.0925
297.75	0.8235	0.0795
297.8	0.8135	0.064
297.85	0.795	0.0435
297.9	0.773	0.025
297.95	0.745	-0.002
298	0.711	-0.0305
298.05	0.6685	-0.059
298.1	0.629	-0.0845
298.15	0.5865	-0.1185
298.2	0.5425	-0.1435
298.25	0.4995	-0.1695
298.3	0.457	-0.1875
298.35	0.418	-0.21
298.4	0.384	-0.223
298.45	0.3535	-0.236
298.5	0.331	-0.243
298.55	0.3145	-0.25
298.6	0.303	-0.2485
298.65	0.2985	-0.243
298.7	0.3025	-0.2315
298.75	0.309	-0.2185
298.8	0.3285	-0.1985
298.85	0.3515	-0.1775
298.9	0.3805	-0.1515
298.95	0.41	-0.125
299	0.451	-0.0955
299.05	0.49	-0.0685
299.1	0.532	-0.04
299.15	0.573	-0.0165
299.2	0.6195	0.0125
299.25	0.662	0.035
299.3	0.704	0.056
299.35	0.738	0.0725
299.4	0.769	0.0875
299.45	0.792	0.0935
299.5	0.8135	0.0985
299.55	0.8255	0.1
299.6	0.8305	0.0965
299.65	0.824	0.0845
299.7	0.819	0.067
299.75	0.8035	0.0445
299.8	0.782	0.029
299.85	0.755	0.005
299.9	0.7255	-0.02
299.95	0.6855	-0.0505
300	0.6465	-0.076
300.05	0.605	-0.105
300.1	0.5625	-0.132
300.15	0.516	-0.158
300.2	0.472	-0.18
300.25	0.431	-0.204
300.3	0.3975	-0.2195
300.35	0.364	-0.2335
300.4	0.3395	-0.239
300.45	0.319	-0.244
300.5	0.308	-0.2435
300.55	0.2995	-0.242
300.6	0.3005	-0.231
300.65	0.3055	-0.222
300.7	0.32	-0.204
300.75	0.3395	-0.187
300.8	0.368	-0.1605
300.85	0.3965	-0.138
300.9	0.4355	-0.108
300.95	0.4725	-0.0815
301	0.5165	-0.05
301.05	0.5575	-0.0225
301.1	0.6025	0.004
301.15	0.642	0.028
301.2	0.6855	0.049
301.25	0.723	0.0655
301.3	0.7575	0.0805
301.35	0.782	0.0875
301.4	0.805	0.0995
301.45	0.8195	0.098
301.5	0.8285	0.0975
301.55	0.8285	0.087
301.6	0.8235	0.073
301.65	0.811	0.055
301.7	0.7935	0.0375
301.75	0.7635	0.013
301.8	0.733	-0.008
301.85	0.6955	-0.037
301.9	0.661	-0.0645
301.95	0.6185	-0.097
302	0.578	-0.1225
302.05	0.534	-0.1475
302.1	0.4925	-0.1725
302.15	0.45	-0.1975
302.2	0.4115	-0.2125
302.25	0.376	-0.2265
302.3	0.348	-0.2355
302.35	0.324	-0.2485
302.4	0.309	-0.2465
302.45	0.299	-0.246
302.5	0.299	-0.2355
302.55	0.3025	-0.227
302.6	0.3165	-0.2105
302.65	0.333	-0.193
302.7	0.358	-0.1685
302.75	0.3865	-0.1455
302.8	0.42	-0.114
302.85	0.457	-0.088
302.9	0.5035	-0.06
302.95	0.5455	-0.031
303	0.5895	-0.0045
303.05	0.63	0.021
303.1	0.6725	0.0435
303.15	0.7115	0.0615
303.2	0.749	0.0795
303.25	0.7765	0.089
303.3	0.8	0.098
303.35	0.816	0.0985
303.4	0.828	0.1
303.45	0.832	0.091
303.5	0.828	0.0785
303.55	0.815	0.062
303.6	0.8005	0.0485
303.65	0.7785	0.022
303.7	0.752	0
303.75	0.714	-0.0265
303.8	0.6765	-0.054
303.85	0.632	-0.086
303.9	0.5915	-0.112
303.95	0.5465	-0.141
304	0.5055	-0.1645
304.05	0.4625	-0.186
304.1	0.426	-0.2035
304.15	0.39	-0.2245
304.2	0.359	-0.236
304.25	0.3345	-0.245
304.3	0.3165	-0.246
304.35	0.3055	-0.2475
304.4	0.302	-0.24
304.45	0.3015	-0.2335
304.5	0.3125	-0.214
304.55	0.3275	-0.1965
304.6	0.3485	-0.175
304.65	0.3745	-0.1575
304.7	0.41	-0.125
304.75	0.447	-0.0985
304.8	0.4885	-0.071
304.85	0.5285	-0.045
304.9	0.5725	-0.0135
304.95	0.614	0.01
305	0.6565	0.034
305.05	0.691	0.0525
305.1	0.7285	0.073
305.15	0.761	0.086
305.2	0.7885	0.0965
305.25	0.806	0.0975
305.3	0.8205	0.095
305.35	0.826	0.093
305.4	0.829	0.086
305.45	0.8185	0.07
305.5	0.8045	0.0535
305.55	0.781	0.0305
305.6	0.755	0.008
305.65	0.724	-0.0185
305.7	0.6895	-0.042
305.75	0.649	-0.074
305.8	0.6085	-0.0975
305.85	0.562	-0.1265
305.9	0.519	-0.152
305.95	0.476	-0.1765
306	0.4385	-0.1955
306.05	0.4005	-0.2135
306.1	0.37	-0.224
306.15	0.341	-0.239
306.2	0.3215	-0.2435
306.25	0.3055	-0.2465
306.3	0.299	-0.2405
306.35	0.2975	-0.234
306.4	0.305	-0.2175
306.45	0.319	-0.203
306.5	0.3415	-0.1835
306.55	0.3635	-0.1605
306.6	0.3955	-0.132
306.65	0.4295	-0.109
306.7	0.47	-0.08
306.75	0.512	-0.0545
306.8	0.5585	-0.0255
306.85	0.599	-0.003
306.9	0.6425	0.024
306.95	0.682	0.044
307	0.7205	0.0625
307.05	0.7515	0.075
307.1	0.7835	0.089
307.15	0.807	0.094
307.2	0.8225	0.097
307.25	0.829	0.094
307.3	0.829	0.0875
307.35	0.8205	0.071
307.4	0.811	0.057
307.45	0.7915	0.0365
307.5	0.769	0.0175
307.55	0.738	-0.009
307.6	0.7065	-0.034
307.65	0.665	-0.064
307.7	0.6265	-0.089
307.75	0.582	-0.1175
307.8	0.538	-0.1415
307.85	0.4935	-0.168
307.9	0.454	-0.187
307.95	0.4155	-0.2095
308	0.3815	-0.22
308.05	0.3535	-0.23
308.1	0.333	-0.237
308.15	0.3145	-0.2435
308.2	0.3055	-0.242
308.25	0.3005	-0.235
308.3	0.304	-0.222
308.35	0.314	-0.2085
308.4	0.3325	-0.19
308.45	0.3575	-0.1695
308.5	0.3865	-0.1455
308.55	0.419	-0.119
308.6	0.459	-0.087
308.65	0.4995	-0.0625
308.7	0.541	-0.0335
308.75	0.5835	-0.0095
308.8	0.6275	0.0185
308.85	0.6645	0.039
308.9	0.7085	0.0595
308.95	0.741	0.074
309	0.7735	0.0845
309.05	0.794	0.092
309.1	0.811	0.095
309.15	0.824	0.0915
309.2	0.83	0.0885
309.25	0.826	0.0765
309.3	0.8205	0.063
309.35	0.803	0.044
309.4	0.7795	0.024
309.45	0.748	0
309.5	0.7155	-0.0265
309.55	0.6765	-0.0565
309.6	0.636	-0.0795
309.65	0.5935	-0.1055
309.7	0.5535	-0.132
309.75	0.5085	-0.1605
309.8	0.4685	-0.1805
309.85	0.428	-0.2025
309.9	0.392	-0.2175
309.95	0.3625	-0.2355
310	0.337	-0.239
310.05	0.315	-0.2465
310.1	0.3045	-0.2415
310.15	0.3	-0.238
310.2	0.301	-0.2305
310.25	0.308	-0.2165
310.3	0.3255	-0.199
310.35	0.346	-0.1805
310.4	0.3735	-0.152
310.45	0.405	-0.126
310.5	0.4435	-0.097
310.55	0.484	-0.0725
310.6	0.5275	-0.042
310.65	0.567	-0.0175
310.7	0.612	0.008
310.75	0.6505	0.0295
310.8	0.6915	0.0495
310.85	0.7275	0.065
310.9	0.761	0.0815
310.95	0.7845	0.09
311	0.807	0.095
311.05	0.8205	0.0935
311.1	0.83	0.0905
311.15	0.829	0.08
311.2	0.822	0.069
311.25	0.804	0.0515
311.3	0.7855	0.0325
311.35	0.759	0.0075
311.4	0.7275	-0.0145
311.45	0.6875	-0.0455
311.5	0.649	-0.0695
311.55	0.6065	-0.1015
311.6	0.5655	-0.1235
311.65	0.5225	-0.15
311.7	0.4825	-0.174
311.75	0.4425	-0.1945
311.8	0.4055	-0.2095
311.85	0.3715	-0.227
311.9	0.349	-0.236
311.95	0.3275	-0.243
312	0.313	-0.2395
312.05	0.301	-0.2395
312.1	0.303	-0.2315
312.15	0.306	-0.2175
312.2	0.321	-0.1995
312.25	0.34	-0.1835
312.3	0.3655	-0.162
312.35	0.3965	-0.1375
312.4	0.432	-0.1105
312.45	0.468	-0.086
312.5	0.51	-0.0545
312.55	0.5535	-0.0335
312.6	0.6	-0.0065
312.65	0.641	0.018
312.7	0.683	0.0425
312.75	0.7195	0.059
312.8	0.75	0.075
312.85	0.776	0.0835
312.9	0.797	0.092
312.95	0.811	0.093
313	0.8235	0.0925
313.05	0.8245	0.085
313.1	0.8215	0.075
313.15	0.811	0.057
313.2	0.7945	0.042
313.25	0.769	0.019
313.3	0.739	-0.0065
313.35	0.706	-0.035
313.4	0.665	-0.062
313.45	0.621	-0.0895
313.5	0.5785	-0.1145
313.55	0.537	-0.143
313.6	0.494	-0.1655
313.65	0.454	-0.1885
313.7	0.417	-0.2065
313.75	0.382	-0.2245
313.8	0.353	-0.2335
313.85	0.329	-0.244
313.9	0.3125	-0.2445
313.95	0.303	-0.241
314	0.3005	-0.2325
314.05	0.303	-0.225
314.1	0.315	-0.211
314.15	0.3295	-0.1935
314.2	0.3535	-0.1725
314.25	0.3825	-0.1485
314.3	0.415	-0.1215
314.35	0.449	-0.0925
314.4	0.4905	-0.0645
314.45	0.5355	-0.039
314.5	0.576	-0.0115
314.55	0.618	0.0115
314.6	0.6645	0.0335
314.65	0.7025	0.053
314.7	0.7395	0.068
314.75	0.769	0.081
314.8	0.7925	0.093
314.85	0.8085	0.0935
314.9	0.8195	0.0905
314.95	0.825	0.0845
315	0.825	0.076
315.05	0.8155	0.063
315.1	0.8	0.048
315.15	0.777	0.0255
315.2	0.751	0.001
315.25	0.7185	-0.026
315.3	0.6825	-0.049
315.35	0.639	-0.0795
315.4	0.596	-0.105
315.45	0.552	-0.1345
315.5	0.511	-0.155
315.55	0.47	-0.1785
315.6	0.432	-0.198
315.65	0.398	-0.216
315.7	0.368	-0.2275
315.75	0.3435	-0.237
315.8	0.322	-0.24
315.85	0.308	-0.2415
315.9	0.3015	-0.2355
315.95	0.303	-0.231
316	0.312	-0.217
316.05	0.3235	-0.1995
316.1	0.3445	-0.1775
316.15	0.371	-0.1555
316.2	0.402	-0.129
316.25	0.4375	-0.1035
316.3	0.4785	-0.079
316.35	0.5205	-0.05
316.4	0.5645	-0.023
316.45	0.6055	-0.001
316.5	0.65	0.025
316.55	0.6895	0.046
316.6	0.7265	0.061
316.65	0.757	0.0745
316.7	0.784	0.0855
316.75	0.8015	0.0915
316.8	0.818	0.0925
316.85	0.8265	0.0895
316.9	0.828	0.08
316.95	0.82	0.0685
317	0.806	0.055
317.05	0.7865	0.033
317.1	0.7625	0.011
317.15	0.7285	-0.0135
317.2	0.6925	-0.041
317.25	0.652	-0.0715
317.3	0.6115	-0.097
317.35	0.569	-0.124
317.4	0.527	-0.15
317.45	0.485	-0.171
317.5	0.445	-0.1915
317.55	0.4085	-0.207
317.6	0.3735	-0.2225
317.65	0.3465	-0.2345
317.7	0.325	-0.2385
317.75	0.308	-0.239
317.8	0.298	-0.236
317.85	0.2995	-0.2285
317.9	0.3045	-0.2185
317.95	0.319	-0.2025
318	0.338	-0.183
318.05	0.362	-0.16
318.1	0.3905	-0.1385
318.15	0.425	-0.113
318.2	0.4635	-0.086
318.25	0.504	-0.0595
318.3	0.545	-0.031
318.35	0.5895	-0.0085
318.4	0.6325	0.0165
318.45	0.675	0.038
318.5	0.712	0.058
318.55	0.7445	0.0745
318.6	0.7745	0.081
318.65	0.798	0.0885
318.7	0.814	0.091
318.75	0.8255	0.09
318.8	0.8255	0.083
318.85	0.822	0.0715
318.9	0.8095	0.0565
318.95	0.793	0.038
319	0.767	0.0175
319.05	0.7405	-0.0035
319.1	0.707	-0.03
319.15	0.67	-0.056
319.2	0.63	-0.08
319.25	0.5865	-0.11
319.3	0.5445	-0.135
319.35	0.5015	-0.163
319.4	0.4645	-0.1845
319.45	0.426	-0.202
319.5	0.389	-0.2185
319.55	0.358	-0.23
319.6	0.3315	-0.235
319.65	0.3155	-0.239
319.7	0.3035	-0.2365
319.75	0.3005	-0.2315
319.8	0.3045	-0.2215
319.85	0.3125	-0.2095
319.9	0.326	-0.191
319.95	0.3505	-0.1705
320	0.3765	-0.148
320.05	0.4095	-0.124
320.1	0.4465	-0.0955
320.15	0.49	-0.067
320.2	0.5325	-0.041
320.25	0.578	-0.0145
320.3	0.6195	0.0085
320.35	0.663	0.029
320.4	0.7025	0.049
320.45	0.736	0.064
320.5	0.766	0.0755
320.55	0.7925	0.0865
320.6	0.81	0.092
320.65	0.8225	0.092
320.7	0.8285	0.087
320.75	0.8275	0.0785
320.8	0.816	0.064
320.85	0.802	0.046
320.9	0.778	0.0225
320.95	0.753	0.0005
321	0.721	-0.022
321.05	0.685	-0.0475
321.1	0.6445	-0.077
321.15	0.604	-0.1035
321.2	0.5615	-0.1295
321.25	0.518	-0.1555
321.3	0.4755	-0.1775
321.35	0.4365	-0.1955
321.4	0.3995	-0.21
321.45	0.369	-0.224
321.5	0.342	-0.2305
321.55	0.3215	-0.2375
321.6	0.306	-0.2375
321.65	0.3015	-0.235
321.7	0.2995	-0.229
321.75	0.309	-0.2155
321.8	0.3215	-0.201
321.85	0.345	-0.1805
321.9	0.3695	-0.1565
321.95	0.401	-0.1315
322	0.4365	-0.106
322.05	0.479	-0.0775
322.1	0.5175	-0.0535
322.15	0.561	-0.027
322.2	0.603	-0.003
322.25	0.646	0.024
322.3	0.6835	0.045
322.35	0.718	0.061
322.4	0.749	0.0725
322.45	0.776	0.084
322.5	0.8	0.0865
322.55	0.818	0.088
322.6	0.826	0.087
322.65	0.83	0.0815
322.7	0.8255	0.0675
322.75	0.8105	0.052
322.8	0.7905	0.0335
322.85	0.7665	0.011
322.9	0.734	-0.0145
322.95	0.7015	-0.042
323	0.6595	-0.07
323.05	0.619	-0.091
323.1	0.575	-0.1195
323.15	0.5315	-0.144
323.2	0.4875	-0.169
323.25	0.448	-0.189
323.3	0.409	-0.2085
323.35	0.3785	-0.2205
323.4	0.3475	-0.2295
323.45	0.324	-0.236
323.5	0.3075	-0.2405
323.55	0.299	-0.237
323.6	0.296	-0.2295
323.65	0.305	-0.217
323.7	0.3135	-0.204
323.75	0.3335	-0.188
323.8	0.3565	-0.1675
323.85	0.388	-0.142
323.9	0.422	-0.1175
323.95	0.4625	-0.0895
324	0.5025	-0.064
324.05	0.546	-0.0365
324.1	0.587	-0.012
324.15	0.632	0.0125
324.2	0.671	0.0335
324.25	0.7105	0.053
324.3	0.7425	0.0685
324.35	0.7725	0.0795
324.4	0.795	0.0865
324.45	0.813	0.0905
324.5	0.823	0.0875
324.55	0.83	0.083
324.6	0.826	0.073
324.65	0.815	0.0605
324.7	0.798	0.041
324.75	0.7735	0.022
324.8	0.746	-0.0015
324.85	0.7165	-0.0275
324.9	0.677	-0.0555
324.95	0.6355	-0.0795
325	0.5925	-0.1085
325.05	0.549	-0.1325
325.1	0.504	-0.16
325.15	0.4605	-0.1825
325.2	0.421	-0.201
325.25	0.388	-0.2125
325.3	0.357	-0.226
325.35	0.3355	-0.2325
325.4	0.3175	-0.239
325.45	0.3065	-0.236
325.5	0.298	-0.2325
325.55	0.3	-0.221
325.6	0.31	-0.2115
325.65	0.326	-0.193
325.7	0.345	-0.1735
325.75	0.3735	-0.151
325.8	0.4045	-0.129
325.85	0.4435	-0.101
325.9	0.485	-0.074
325.95	0.528	-0.0455
326	0.571	-0.022
326.05	0.6165	0.0035
326.1	0.6585	0.025
326.15	0.697	0.0485
326.2	0.7315	0.064
326.25	0.7625	0.077
326.3	0.7875	0.083
326.35	0.81	0.089
326.4	0.821	0.09
326.45	0.828	0.085
326.5	0.8265	0.0735
326.55	0.8205	0.0645
326.6	0.8015	0.043
326.65	0.782	0.0265
326.7	0.755	0
326.75	0.7225	-0.0225
326.8	0.687	-0.049
326.85	0.6465	-0.0735
326.9	0.6065	-0.097
326.95	0.5655	-0.1235
327	0.521	-0.1505
327.05	0.4825	-0.1695
327.1	0.4415	-0.1925
327.15	0.406	-0.2085
327.2	0.3725	-0.2225
327.25	0.35	-0.2335
327.3	0.325	-0.238
327.35	0.3115	-0.2385
327.4	0.3015	-0.233
327.45	0.3	-0.2275
327.5	0.3075	-0.213
327.55	0.3205	-0.1965
327.6	0.3375	-0.1765
327.65	0.3645	-0.1545
327.7	0.396	-0.1335
327.75	0.433	-0.105
327.8	0.472	-0.0825
327.85	0.5135	-0.053
327.9	0.555	-0.0305
327.95	0.6	-0.0035
328	0.6445	0.0175
328.05	0.684	0.039
328.1	0.72	0.059
328.15	0.7515	0.072
328.2	0.777	0.08
328.25	0.799	0.0865
328.3	0.8145	0.085
328.35	0.827	0.0865
328.4	0.8255	0.077
328.45	0.821	0.066
328.5	0.809	0.05
328.55	0.7935	0.034
328.6	0.771	0.011
328.65	0.739	-0.01
328.7	0.702	-0.036
328.75	0.664	-0.061
